*RAS_DATA_START
*RAS_HEADER_START
*CORR_POS_DB_NAME "Sample"
*CORR_POS_GONIO_RADIUS ""
*CORR_POS_NODE_INDEX01 ""
*CORR_POS_NODE_INDEX02 ""
*CORR_POS_NODE_INDEX03 ""
*CORR_POS_NODE_INDEX04 ""
*CORR_POS_NODE_INDEX05 ""
*CORR_POS_NODE_INDEX06 ""
*CORR_POS_NODE_INDEX07 ""
*CORR_POS_NODE_INDEX08 ""
*CORR_POS_NODE_INDEX09 ""
*CORR_POS_NODE_INDEX10 ""
*CORR_POS_NODE_INDEX11 ""
*CORR_POS_NODE_LABEL01 "Si(111)"
*CORR_POS_NODE_LABEL02 "Si(220)"
*CORR_POS_NODE_LABEL03 "Si(311)"
*CORR_POS_NODE_LABEL04 "Si(400)"
*CORR_POS_NODE_LABEL05 "Si(331)"
*CORR_POS_NODE_LABEL06 "Si(422)"
*CORR_POS_NODE_LABEL07 "Si(511)"
*CORR_POS_NODE_LABEL08 "Si(440)"
*CORR_POS_NODE_LABEL09 "Si(531)"
*CORR_POS_NODE_LABEL10 "Si(620)"
*CORR_POS_NODE_LABEL11 "Si(533)"
*CORR_POS_NODE_POS_CALC01 "28.377"
*CORR_POS_NODE_POS_CALC02 "47.2506"
*CORR_POS_NODE_POS_CALC03 "56.0725"
*CORR_POS_NODE_POS_CALC04 "69.0822"
*CORR_POS_NODE_POS_CALC05 "76.3294"
*CORR_POS_NODE_POS_CALC06 "87.9853"
*CORR_POS_NODE_POS_CALC07 "94.9091"
*CORR_POS_NODE_POS_CALC08 "106.668"
*CORR_POS_NODE_POS_CALC09 "114.054"
*CORR_POS_NODE_POS_CALC10 "127.511"
*CORR_POS_NODE_POS_CALC11 "136.864"
*CORR_POS_NODE_POS_MEAS01 "28.377"
*CORR_POS_NODE_POS_MEAS02 "47.2506"
*CORR_POS_NODE_POS_MEAS03 "56.0725"
*CORR_POS_NODE_POS_MEAS04 "69.0822"
*CORR_POS_NODE_POS_MEAS05 "76.3294"
*CORR_POS_NODE_POS_MEAS06 "87.9853"
*CORR_POS_NODE_POS_MEAS07 "94.9091"
*CORR_POS_NODE_POS_MEAS08 "106.668"
*CORR_POS_NODE_POS_MEAS09 "114.054"
*CORR_POS_NODE_POS_MEAS10 "127.511"
*CORR_POS_NODE_POS_MEAS11 "136.864"
*CORR_POS_OPT_ATTR "集中法"
*CORR_POS_PARAM_MU ""
*CORR_POS_PARAM_PL ""
*CORR_POS_SEMODEL_TYPE "0"
*CORR_POS_STANDARD_TYPE ""
*CORR_POS_VALUE_ANALYZER "None"
*CORR_POS_VALUE_CMONO "None"
*CORR_POS_VALUE_IMONO "None"
*CORR_POS_VALUE_IS "1.250deg"
*CORR_POS_VALUE_ISL "10.0mm"
*CORR_POS_VALUE_ISOLLER "5.0deg"
*CORR_POS_VALUE_RS1 "1.250deg"
*CORR_POS_VALUE_RS2 "0.3mm"
*CORR_POS_VALUE_RSOLLER "5.0deg"
*CORR_POS_XG_FOCUS_L ""
*CORR_POS_XG_WAVE_TYPE ""
*CORR_POS_XG_WAVE_VALUE ""
*DISP_FMT_X "%.2f"
*DISP_FMT_Y "%.0f"
*DISP_FULLSCALE "223520.0000000000"
*DISP_LINE_COLOR "255.0000000000"
*DISP_LINE_STYLE "0.0000000000"
*DISP_LINE_WIDTH "0.2500000000"
*DISP_NOTE "測定データ-1"
*DISP_OFFSET_Y "0.0000000000"
*DISP_PEAKSEARCH_UNIT_Y "CPS"
*DISP_RANGE_BOTTOM "0.0000000000"
*DISP_RANGE_LEFT "3.0000000000"
*DISP_RANGE_LOGCUTOFF "0.0100000000"
*DISP_RANGE_RIGHT "55.0000000000"
*DISP_RANGE_TOP "223520.0000000000"
*DISP_SCALE_MODE_Y "0.0000000000"
*DISP_TAB_NAME "2θ/θ"
*DISP_TITLE_Y "強度"
*DISP_UNIT_Y "CPS"
*DISP_WINDOW_NAME "MSG_MACROENGINE"
*FILE_COMMENT " "
*FILE_MD5 ""
*FILE_MEMO " "
*FILE_OPERATOR "Administrator"
*FILE_PART_ID "MEAS_PBEA_00223"
*FILE_SAMPLE " "
*FILE_TYPE "RAS_RAW"
*FILE_USERGROUP "システムマネージャ"
*FILE_VERSION "1.0000000000"
*HW_ATTACHMENT_ID "ATT1031"
*HW_ATTACHMENT_NAME "6サンプルチェンジャ|ASC-6"
*HW_COUNTER_ID-0 "CUT0025"
*HW_COUNTER_ID-1 "CUT0020"
*HW_COUNTER_ID-2 "CUT0020"
*HW_COUNTER_ID-3 "CMC0021"
*HW_COUNTER_NAME-0 "D/teX Ultra|D/teX Ultra"
*HW_COUNTER_NAME-1 "None|None"
*HW_COUNTER_NAME-2 "None|None"
*HW_COUNTER_NAME-3 "検出器モノクロメータ|Detector monochromator"
*HW_COUNTER_SELECT_NAME "D/teX Ultra|D/teX Ultra"
*HW_GONIOMETER_ID "GON0070"
*HW_GONIOMETER_NAME "MiniFlex 300/600|MiniFlex 300/600"
*HW_GONIOMETER_RADIUS-0 "79.0"
*HW_GONIOMETER_RADIUS-1 "91.5"
*HW_GONIOMETER_RADIUS-2 "150.0"
*HW_GONIOMETER_RADIUS-3 "0"
*HW_GONIOMETER_RADIUS-4 "103.4"
*HW_GONIOMETER_RADIUS-5 "150.0"
*HW_GONIOMETER_RADIUS-6 "46.6"
*HW_GONIOMETER_RADIUS-7 "160.0"
*HW_I_OPT_ID-0 "ISL0021"
*HW_I_OPT_ID-1 "ISO0021"
*HW_I_OPT_NAME-0 "発散スリット|Divergence slit"
*HW_I_OPT_NAME-1 "入射平行スリット|Incident parallel slit"
*HW_R_ATTENUATER_AUTOMODE "0"
*HW_R_OPT_ID-0 "RSS0021"
*HW_R_OPT_ID-1 "RSO0021"
*HW_R_OPT_ID-2 "RRS0021"
*HW_R_OPT_NAME-0 "散乱スリット|Scattering slit"
*HW_R_OPT_NAME-1 "受光平行スリット|Receiving soller slit"
*HW_R_OPT_NAME-2 "受光スリット|Receiving slit"
*HW_SAMPLE_HOLDER_ID "SMP0000"
*HW_SAMPLE_HOLDER_NAME "無し|None"
*HW_XG_CURRENT_MAX "15"
*HW_XG_CURRENT_MIN "2"
*HW_XG_CURRENT_RESOLUTION "1"
*HW_XG_CURRENT_UNIT "mA"
*HW_XG_FOCUS "1mm x 10mm"
*HW_XG_FOCUS_TYPE "Normal"
*HW_XG_ID "1060"
*HW_XG_NAME "300W/600W 封入管-B|300W/600W Sealed tube-B"
*HW_XG_TARGET_ATOMIC_NUMBER "29.0000000000"
*HW_XG_TARGET_NAME "Cu"
*HW_XG_TYPE "Hermetic"
*HW_XG_VOLTAGE_MAX "40"
*HW_XG_VOLTAGE_MIN "20"
*HW_XG_VOLTAGE_RESOLUTION "1"
*HW_XG_VOLTAGE_UNIT "kV"
*HW_XG_WATT_MAX "1"
*HW_XG_WATT_UNIT "kW"
*HW_XG_WAVE_LENGTH_ALPHA1 "1.540593"
*HW_XG_WAVE_LENGTH_ALPHA2 "1.544414"
*HW_XG_WAVE_LENGTH_BETA "1.392250"
*MEAS_COND_AXIS_NAME-0 "2θ/θ"
*MEAS_COND_AXIS_NAME-1 "試料回転"
*MEAS_COND_AXIS_NAME-2 "試料交換"
*MEAS_COND_AXIS_NAME-3 "Soller(inc.)"
*MEAS_COND_AXIS_NAME-4 "IHS"
*MEAS_COND_AXIS_NAME-5 "DS"
*MEAS_COND_AXIS_NAME-6 "SS"
*MEAS_COND_AXIS_NAME-7 "Soller(rec.)"
*MEAS_COND_AXIS_NAME-8 "RS"
*MEAS_COND_AXIS_NAME-9 "フィルター"
*MEAS_COND_AXIS_NAME-10 "モノクロメータ"
*MEAS_COND_AXIS_NAME-11 "PHA"
*MEAS_COND_AXIS_NAME_INTERNAL-0 "TwoThetaTheta"
*MEAS_COND_AXIS_NAME_INTERNAL-1 "Spin"
*MEAS_COND_AXIS_NAME_INTERNAL-2 "Change"
*MEAS_COND_AXIS_NAME_INTERNAL-3 "IncidentSollerSlit"
*MEAS_COND_AXIS_NAME_INTERNAL-4 "IncidentAxdSlit"
*MEAS_COND_AXIS_NAME_INTERNAL-5 "IncidentSlitBox"
*MEAS_COND_AXIS_NAME_INTERNAL-6 "ReceivingSlitBox1"
*MEAS_COND_AXIS_NAME_INTERNAL-7 "ReceivingSollerSlit"
*MEAS_COND_AXIS_NAME_INTERNAL-8 "ReceivingSlitBox2"
*MEAS_COND_AXIS_NAME_INTERNAL-9 "Filter"
*MEAS_COND_AXIS_NAME_INTERNAL-10 "CounterMonochromator"
*MEAS_COND_AXIS_NAME_INTERNAL-11 "PHA"
*MEAS_COND_AXIS_NAME_MAGICNO-0 "268632064.0000000000"
*MEAS_COND_AXIS_NAME_MAGICNO-1 "16842752.0000000000"
*MEAS_COND_AXIS_NAME_MAGICNO-2 "16842752.0000000000"
*MEAS_COND_AXIS_NAME_MAGICNO-3 "20971521.0000000000"
*MEAS_COND_AXIS_NAME_MAGICNO-4 "22020097.0000000000"
*MEAS_COND_AXIS_NAME_MAGICNO-5 "22020097.0000000000"
*MEAS_COND_AXIS_NAME_MAGICNO-6 "23068673.0000000000"
*MEAS_COND_AXIS_NAME_MAGICNO-7 "20971521.0000000000"
*MEAS_COND_AXIS_NAME_MAGICNO-8 "23068673.0000000000"
*MEAS_COND_AXIS_NAME_MAGICNO-9 "20971521.0000000000"
*MEAS_COND_AXIS_NAME_MAGICNO-10 "20971521.0000000000"
*MEAS_COND_AXIS_NAME_MAGICNO-11 "0.0000000000"
*MEAS_COND_AXIS_OFFSET-0 "0.0000000000"
*MEAS_COND_AXIS_OFFSET-1 "-"
*MEAS_COND_AXIS_OFFSET-2 "-"
*MEAS_COND_AXIS_OFFSET-3 "-"
*MEAS_COND_AXIS_OFFSET-4 "-"
*MEAS_COND_AXIS_OFFSET-5 "-"
*MEAS_COND_AXIS_OFFSET-6 "-"
*MEAS_COND_AXIS_OFFSET-7 "-"
*MEAS_COND_AXIS_OFFSET-8 "-"
*MEAS_COND_AXIS_OFFSET-9 "-"
*MEAS_COND_AXIS_OFFSET-10 "-"
*MEAS_COND_AXIS_OFFSET-11 "-"
*MEAS_COND_AXIS_POSITION-0 "10.0000000000"
*MEAS_COND_AXIS_POSITION-1 "0.0000000000"
*MEAS_COND_AXIS_POSITION-2 "4.0000000000"
*MEAS_COND_AXIS_POSITION-3 "2.5deg"
*MEAS_COND_AXIS_POSITION-4 "10.0mm"
*MEAS_COND_AXIS_POSITION-5 "1.250deg"
*MEAS_COND_AXIS_POSITION-6 "13.0mm(Open)"
*MEAS_COND_AXIS_POSITION-7 "2.5deg"
*MEAS_COND_AXIS_POSITION-8 "13.0mm"
*MEAS_COND_AXIS_POSITION-9 "K-beta(x1)"
*MEAS_COND_AXIS_POSITION-10 "None"
*MEAS_COND_AXIS_POSITION-11 "34.0000000000"
*MEAS_COND_AXIS_UNIT-0 "deg"
*MEAS_COND_AXIS_UNIT-1 ""
*MEAS_COND_AXIS_UNIT-2 ""
*MEAS_COND_AXIS_UNIT-3 ""
*MEAS_COND_AXIS_UNIT-4 ""
*MEAS_COND_AXIS_UNIT-5 ""
*MEAS_COND_AXIS_UNIT-6 ""
*MEAS_COND_AXIS_UNIT-7 ""
*MEAS_COND_AXIS_UNIT-8 ""
*MEAS_COND_AXIS_UNIT-9 ""
*MEAS_COND_AXIS_UNIT-10 ""
*MEAS_COND_AXIS_UNIT-11 "div"
*MEAS_COND_COUNTER_CNTLOSS_CORR "0.0000000000"
*MEAS_COND_COUNTER_PHABASE "34.0000000000"
*MEAS_COND_COUNTER_PHAWINDOW "14.0000000000"
*MEAS_COND_COUNTER_PHA_UNIT "div"
*MEAS_COND_COUNTER_TAUDIFF "0.2500000000"
*MEAS_COND_COUNTER_TAUINT "0.7500000000"
*MEAS_COND_IRRADIATION_MODE "OFF"
*MEAS_COND_IRRADIATION_WIDTH ""
*MEAS_COND_OPT_ATTR " "
*MEAS_COND_OPT_NAME ""
*MEAS_COND_UNSYMMETRIC_MODE "OFF"
*MEAS_COND_XG_CURRENT "15.0000000000"
*MEAS_COND_XG_VOLTAGE "40.0000000000"
*MEAS_COND_XG_WAVE_TYPE "Ka"
*MEAS_DATA_COUNT "5201.0000000000"
*MEAS_SCAN_AXIS_X "2θ/θ"
*MEAS_SCAN_AXIS_X_INTERNAL "TwoThetaTheta"
*MEAS_SCAN_END_TIME "11/24/23 13:30:34"
*MEAS_SCAN_MODE "CONTINUOUS"
*MEAS_SCAN_MONITOR "0"
*MEAS_SCAN_RESOLUTION_X "0.005"
*MEAS_SCAN_SPEED "10.000"
*MEAS_SCAN_SPEED_UNIT "deg/min"
*MEAS_SCAN_SPEED_USER "10.000"
*MEAS_SCAN_START "3.0000000000"
*MEAS_SCAN_START_TIME "11/24/23 13:24:36"
*MEAS_SCAN_STEP "0.0100000000"
*MEAS_SCAN_STOP "55.0000000000"
*MEAS_SCAN_UNIT_X "deg"
*MEAS_SCAN_UNIT_Y "counts"
*SLIT_SYSTEM "0"
*RAS_HEADER_END
*RAS_INT_START
3.000 476.000 1.000
3.010 466.000 1.000
3.020 436.000 1.000
3.030 448.000 1.000
3.040 451.000 1.000
3.050 439.000 1.000
3.060 442.000 1.000
3.070 444.000 1.000
3.080 445.000 1.000
3.090 444.000 1.000
3.100 477.000 1.000
3.110 455.000 1.000
3.120 434.000 1.000
3.130 450.000 1.000
3.140 453.000 1.000
3.150 421.000 1.000
3.160 441.000 1.000
3.170 460.000 1.000
3.180 433.000 1.000
3.190 407.000 1.000
3.200 448.000 1.000
3.210 451.000 1.000
3.220 430.000 1.000
3.230 442.000 1.000
3.240 421.000 1.000
3.250 414.000 1.000
3.260 445.000 1.000
3.270 452.000 1.000
3.280 449.000 1.000
3.290 440.000 1.000
3.300 429.000 1.000
3.310 428.000 1.000
3.320 437.000 1.000
3.330 413.000 1.000
3.340 424.000 1.000
3.350 424.000 1.000
3.360 427.000 1.000
3.370 404.000 1.000
3.380 437.000 1.000
3.390 465.000 1.000
3.400 445.000 1.000
3.410 435.000 1.000
3.420 436.000 1.000
3.430 435.000 1.000
3.440 445.000 1.000
3.450 450.000 1.000
3.460 452.000 1.000
3.470 473.000 1.000
3.480 467.000 1.000
3.490 448.000 1.000
3.500 442.000 1.000
3.510 441.000 1.000
3.520 439.000 1.000
3.530 477.000 1.000
3.540 466.000 1.000
3.550 452.000 1.000
3.560 448.000 1.000
3.570 446.000 1.000
3.580 438.000 1.000
3.590 440.000 1.000
3.600 446.000 1.000
3.610 443.000 1.000
3.620 448.000 1.000
3.630 458.000 1.000
3.640 448.000 1.000
3.650 407.000 1.000
3.660 411.000 1.000
3.670 463.000 1.000
3.680 452.000 1.000
3.690 422.000 1.000
3.700 441.000 1.000
3.710 438.000 1.000
3.720 444.000 1.000
3.730 452.000 1.000
3.740 462.000 1.000
3.750 448.000 1.000
3.760 458.000 1.000
3.770 436.000 1.000
3.780 459.000 1.000
3.790 452.000 1.000
3.800 432.000 1.000
3.810 458.000 1.000
3.820 457.000 1.000
3.830 443.000 1.000
3.840 431.000 1.000
3.850 441.000 1.000
3.860 477.000 1.000
3.870 481.000 1.000
3.880 457.000 1.000
3.890 441.000 1.000
3.900 455.000 1.000
3.910 456.000 1.000
3.920 479.000 1.000
3.930 440.000 1.000
3.940 431.000 1.000
3.950 444.000 1.000
3.960 460.000 1.000
3.970 459.000 1.000
3.980 442.000 1.000
3.990 448.000 1.000
4.000 441.000 1.000
4.010 450.000 1.000
4.020 464.000 1.000
4.030 490.000 1.000
4.040 465.000 1.000
4.050 443.000 1.000
4.060 449.000 1.000
4.070 464.000 1.000
4.080 440.000 1.000
4.090 447.000 1.000
4.100 433.000 1.000
4.110 440.000 1.000
4.120 479.000 1.000
4.130 446.000 1.000
4.140 442.000 1.000
4.150 442.000 1.000
4.160 436.000 1.000
4.170 459.000 1.000
4.180 456.000 1.000
4.190 438.000 1.000
4.200 445.000 1.000
4.210 431.000 1.000
4.220 421.000 1.000
4.230 423.000 1.000
4.240 416.000 1.000
4.250 425.000 1.000
4.260 447.000 1.000
4.270 449.000 1.000
4.280 440.000 1.000
4.290 425.000 1.000
4.300 408.000 1.000
4.310 405.000 1.000
4.320 426.000 1.000
4.330 431.000 1.000
4.340 414.000 1.000
4.350 427.000 1.000
4.360 430.000 1.000
4.370 400.000 1.000
4.380 417.000 1.000
4.390 430.000 1.000
4.400 391.000 1.000
4.410 382.000 1.000
4.420 392.000 1.000
4.430 416.000 1.000
4.440 371.000 1.000
4.450 353.000 1.000
4.460 372.000 1.000
4.470 369.000 1.000
4.480 355.000 1.000
4.490 370.000 1.000
4.500 387.000 1.000
4.510 385.000 1.000
4.520 361.000 1.000
4.530 343.000 1.000
4.540 349.000 1.000
4.550 346.000 1.000
4.560 342.000 1.000
4.570 342.000 1.000
4.580 341.000 1.000
4.590 339.000 1.000
4.600 345.000 1.000
4.610 356.000 1.000
4.620 360.000 1.000
4.630 354.000 1.000
4.640 350.000 1.000
4.650 366.000 1.000
4.660 360.000 1.000
4.670 370.000 1.000
4.680 339.000 1.000
4.690 328.000 1.000
4.700 324.000 1.000
4.710 336.000 1.000
4.720 313.000 1.000
4.730 306.000 1.000
4.740 305.000 1.000
4.750 316.000 1.000
4.760 311.000 1.000
4.770 297.000 1.000
4.780 297.000 1.000
4.790 327.000 1.000
4.800 358.000 1.000
4.810 358.000 1.000
4.820 328.000 1.000
4.830 329.000 1.000
4.840 333.000 1.000
4.850 309.000 1.000
4.860 331.000 1.000
4.870 342.000 1.000
4.880 355.000 1.000
4.890 331.000 1.000
4.900 308.000 1.000
4.910 327.000 1.000
4.920 343.000 1.000
4.930 332.000 1.000
4.940 328.000 1.000
4.950 327.000 1.000
4.960 305.000 1.000
4.970 327.000 1.000
4.980 318.000 1.000
4.990 318.000 1.000
5.000 316.000 1.000
5.010 321.000 1.000
5.020 335.000 1.000
5.030 329.000 1.000
5.040 321.000 1.000
5.050 327.000 1.000
5.060 309.000 1.000
5.070 317.000 1.000
5.080 311.000 1.000
5.090 304.000 1.000
5.100 323.000 1.000
5.110 322.000 1.000
5.120 335.000 1.000
5.130 333.000 1.000
5.140 334.000 1.000
5.150 334.000 1.000
5.160 326.000 1.000
5.170 326.000 1.000
5.180 310.000 1.000
5.190 296.000 1.000
5.200 320.000 1.000
5.210 336.000 1.000
5.220 326.000 1.000
5.230 320.000 1.000
5.240 302.000 1.000
5.250 325.000 1.000
5.260 338.000 1.000
5.270 353.000 1.000
5.280 353.000 1.000
5.290 348.000 1.000
5.300 339.000 1.000
5.310 341.000 1.000
5.320 355.000 1.000
5.330 368.000 1.000
5.340 360.000 1.000
5.350 353.000 1.000
5.360 345.000 1.000
5.370 362.000 1.000
5.380 383.000 1.000
5.390 338.000 1.000
5.400 341.000 1.000
5.410 370.000 1.000
5.420 372.000 1.000
5.430 343.000 1.000
5.440 355.000 1.000
5.450 330.000 1.000
5.460 337.000 1.000
5.470 349.000 1.000
5.480 309.000 1.000
5.490 331.000 1.000
5.500 318.000 1.000
5.510 304.000 1.000
5.520 295.000 1.000
5.530 326.000 1.000
5.540 334.000 1.000
5.550 319.000 1.000
5.560 325.000 1.000
5.570 322.000 1.000
5.580 307.000 1.000
5.590 315.000 1.000
5.600 324.000 1.000
5.610 306.000 1.000
5.620 321.000 1.000
5.630 338.000 1.000
5.640 324.000 1.000
5.650 302.000 1.000
5.660 295.000 1.000
5.670 315.000 1.000
5.680 309.000 1.000
5.690 288.000 1.000
5.700 289.000 1.000
5.710 307.000 1.000
5.720 302.000 1.000
5.730 301.000 1.000
5.740 305.000 1.000
5.750 300.000 1.000
5.760 301.000 1.000
5.770 313.000 1.000
5.780 308.000 1.000
5.790 311.000 1.000
5.800 307.000 1.000
5.810 307.000 1.000
5.820 297.000 1.000
5.830 292.000 1.000
5.840 303.000 1.000
5.850 287.000 1.000
5.860 302.000 1.000
5.870 312.000 1.000
5.880 304.000 1.000
5.890 308.000 1.000
5.900 301.000 1.000
5.910 330.000 1.000
5.920 284.000 1.000
5.930 292.000 1.000
5.940 282.000 1.000
5.950 281.000 1.000
5.960 295.000 1.000
5.970 304.000 1.000
5.980 314.000 1.000
5.990 308.000 1.000
6.000 301.000 1.000
6.010 308.000 1.000
6.020 312.000 1.000
6.030 311.000 1.000
6.040 293.000 1.000
6.050 294.000 1.000
6.060 285.000 1.000
6.070 293.000 1.000
6.080 290.000 1.000
6.090 305.000 1.000
6.100 313.000 1.000
6.110 315.000 1.000
6.120 331.000 1.000
6.130 301.000 1.000
6.140 301.000 1.000
6.150 296.000 1.000
6.160 311.000 1.000
6.170 316.000 1.000
6.180 318.000 1.000
6.190 298.000 1.000
6.200 298.000 1.000
6.210 290.000 1.000
6.220 282.000 1.000
6.230 304.000 1.000
6.240 299.000 1.000
6.250 298.000 1.000
6.260 289.000 1.000
6.270 303.000 1.000
6.280 306.000 1.000
6.290 303.000 1.000
6.300 308.000 1.000
6.310 290.000 1.000
6.320 296.000 1.000
6.330 301.000 1.000
6.340 301.000 1.000
6.350 302.000 1.000
6.360 303.000 1.000
6.370 306.000 1.000
6.380 317.000 1.000
6.390 309.000 1.000
6.400 288.000 1.000
6.410 299.000 1.000
6.420 313.000 1.000
6.430 302.000 1.000
6.440 281.000 1.000
6.450 299.000 1.000
6.460 301.000 1.000
6.470 317.000 1.000
6.480 303.000 1.000
6.490 285.000 1.000
6.500 297.000 1.000
6.510 274.000 1.000
6.520 299.000 1.000
6.530 291.000 1.000
6.540 309.000 1.000
6.550 279.000 1.000
6.560 291.000 1.000
6.570 317.000 1.000
6.580 297.000 1.000
6.590 296.000 1.000
6.600 305.000 1.000
6.610 298.000 1.000
6.620 286.000 1.000
6.630 298.000 1.000
6.640 283.000 1.000
6.650 275.000 1.000
6.660 313.000 1.000
6.670 288.000 1.000
6.680 265.000 1.000
6.690 256.000 1.000
6.700 254.000 1.000
6.710 254.000 1.000
6.720 278.000 1.000
6.730 284.000 1.000
6.740 265.000 1.000
6.750 276.000 1.000
6.760 299.000 1.000
6.770 297.000 1.000
6.780 304.000 1.000
6.790 300.000 1.000
6.800 311.000 1.000
6.810 301.000 1.000
6.820 305.000 1.000
6.830 309.000 1.000
6.840 302.000 1.000
6.850 273.000 1.000
6.860 293.000 1.000
6.870 303.000 1.000
6.880 289.000 1.000
6.890 282.000 1.000
6.900 280.000 1.000
6.910 268.000 1.000
6.920 271.000 1.000
6.930 273.000 1.000
6.940 281.000 1.000
6.950 285.000 1.000
6.960 308.000 1.000
6.970 291.000 1.000
6.980 286.000 1.000
6.990 287.000 1.000
7.000 294.000 1.000
7.010 290.000 1.000
7.020 290.000 1.000
7.030 292.000 1.000
7.040 308.000 1.000
7.050 312.000 1.000
7.060 299.000 1.000
7.070 291.000 1.000
7.080 311.000 1.000
7.090 303.000 1.000
7.100 293.000 1.000
7.110 284.000 1.000
7.120 299.000 1.000
7.130 313.000 1.000
7.140 306.000 1.000
7.150 298.000 1.000
7.160 338.000 1.000
7.170 300.000 1.000
7.180 308.000 1.000
7.190 318.000 1.000
7.200 320.000 1.000
7.210 305.000 1.000
7.220 319.000 1.000
7.230 322.000 1.000
7.240 294.000 1.000
7.250 295.000 1.000
7.260 310.000 1.000
7.270 310.000 1.000
7.280 295.000 1.000
7.290 308.000 1.000
7.300 307.000 1.000
7.310 273.000 1.000
7.320 272.000 1.000
7.330 307.000 1.000
7.340 288.000 1.000
7.350 272.000 1.000
7.360 289.000 1.000
7.370 276.000 1.000
7.380 283.000 1.000
7.390 311.000 1.000
7.400 319.000 1.000
7.410 308.000 1.000
7.420 314.000 1.000
7.430 330.000 1.000
7.440 313.000 1.000
7.450 304.000 1.000
7.460 318.000 1.000
7.470 317.000 1.000
7.480 322.000 1.000
7.490 321.000 1.000
7.500 309.000 1.000
7.510 302.000 1.000
7.520 343.000 1.000
7.530 311.000 1.000
7.540 322.000 1.000
7.550 313.000 1.000
7.560 326.000 1.000
7.570 328.000 1.000
7.580 352.000 1.000
7.590 349.000 1.000
7.600 347.000 1.000
7.610 365.000 1.000
7.620 350.000 1.000
7.630 334.000 1.000
7.640 358.000 1.000
7.650 374.000 1.000
7.660 368.000 1.000
7.670 389.000 1.000
7.680 408.000 1.000
7.690 394.000 1.000
7.700 408.000 1.000
7.710 412.000 1.000
7.720 449.000 1.000
7.730 470.000 1.000
7.740 477.000 1.000
7.750 499.000 1.000
7.760 529.000 1.000
7.770 569.000 1.000
7.780 598.000 1.000
7.790 682.000 1.000
7.800 716.000 1.000
7.810 734.000 1.000
7.820 811.000 1.000
7.830 879.000 1.000
7.840 1000.000 1.000
7.850 1073.000 1.000
7.860 1184.000 1.000
7.870 1315.000 1.000
7.880 1457.000 1.000
7.890 1681.000 1.000
7.900 1847.000 1.000
7.910 2065.000 1.000
7.920 2359.000 1.000
7.930 2708.000 1.000
7.940 3007.000 1.000
7.950 3231.000 1.000
7.960 3499.000 1.000
7.970 3807.000 1.000
7.980 3846.000 1.000
7.990 3745.000 1.000
8.000 3298.000 1.000
8.010 2694.000 1.000
8.020 2072.000 1.000
8.030 1578.000 1.000
8.040 1119.000 1.000
8.050 806.000 1.000
8.060 663.000 1.000
8.070 566.000 1.000
8.080 511.000 1.000
8.090 456.000 1.000
8.100 444.000 1.000
8.110 479.000 1.000
8.120 451.000 1.000
8.130 457.000 1.000
8.140 488.000 1.000
8.150 452.000 1.000
8.160 435.000 1.000
8.170 410.000 1.000
8.180 404.000 1.000
8.190 423.000 1.000
8.200 405.000 1.000
8.210 395.000 1.000
8.220 407.000 1.000
8.230 394.000 1.000
8.240 379.000 1.000
8.250 351.000 1.000
8.260 366.000 1.000
8.270 389.000 1.000
8.280 367.000 1.000
8.290 361.000 1.000
8.300 370.000 1.000
8.310 343.000 1.000
8.320 352.000 1.000
8.330 356.000 1.000
8.340 334.000 1.000
8.350 350.000 1.000
8.360 367.000 1.000
8.370 350.000 1.000
8.380 337.000 1.000
8.390 338.000 1.000
8.400 360.000 1.000
8.410 337.000 1.000
8.420 339.000 1.000
8.430 337.000 1.000
8.440 324.000 1.000
8.450 337.000 1.000
8.460 336.000 1.000
8.470 348.000 1.000
8.480 331.000 1.000
8.490 352.000 1.000
8.500 369.000 1.000
8.510 342.000 1.000
8.520 347.000 1.000
8.530 342.000 1.000
8.540 336.000 1.000
8.550 333.000 1.000
8.560 332.000 1.000
8.570 332.000 1.000
8.580 342.000 1.000
8.590 338.000 1.000
8.600 362.000 1.000
8.610 345.000 1.000
8.620 367.000 1.000
8.630 350.000 1.000
8.640 362.000 1.000
8.650 344.000 1.000
8.660 330.000 1.000
8.670 327.000 1.000
8.680 326.000 1.000
8.690 328.000 1.000
8.700 324.000 1.000
8.710 300.000 1.000
8.720 332.000 1.000
8.730 340.000 1.000
8.740 315.000 1.000
8.750 332.000 1.000
8.760 319.000 1.000
8.770 327.000 1.000
8.780 316.000 1.000
8.790 291.000 1.000
8.800 298.000 1.000
8.810 312.000 1.000
8.820 299.000 1.000
8.830 334.000 1.000
8.840 322.000 1.000
8.850 315.000 1.000
8.860 324.000 1.000
8.870 354.000 1.000
8.880 325.000 1.000
8.890 309.000 1.000
8.900 317.000 1.000
8.910 321.000 1.000
8.920 322.000 1.000
8.930 334.000 1.000
8.940 339.000 1.000
8.950 325.000 1.000
8.960 316.000 1.000
8.970 296.000 1.000
8.980 327.000 1.000
8.990 320.000 1.000
9.000 336.000 1.000
9.010 339.000 1.000
9.020 316.000 1.000
9.030 327.000 1.000
9.040 341.000 1.000
9.050 320.000 1.000
9.060 320.000 1.000
9.070 306.000 1.000
9.080 313.000 1.000
9.090 346.000 1.000
9.100 328.000 1.000
9.110 328.000 1.000
9.120 332.000 1.000
9.130 323.000 1.000
9.140 333.000 1.000
9.150 326.000 1.000
9.160 329.000 1.000
9.170 319.000 1.000
9.180 306.000 1.000
9.190 305.000 1.000
9.200 293.000 1.000
9.210 304.000 1.000
9.220 323.000 1.000
9.230 320.000 1.000
9.240 315.000 1.000
9.250 304.000 1.000
9.260 308.000 1.000
9.270 327.000 1.000
9.280 295.000 1.000
9.290 289.000 1.000
9.300 313.000 1.000
9.310 332.000 1.000
9.320 333.000 1.000
9.330 329.000 1.000
9.340 312.000 1.000
9.350 327.000 1.000
9.360 305.000 1.000
9.370 301.000 1.000
9.380 320.000 1.000
9.390 327.000 1.000
9.400 321.000 1.000
9.410 313.000 1.000
9.420 326.000 1.000
9.430 323.000 1.000
9.440 331.000 1.000
9.450 311.000 1.000
9.460 313.000 1.000
9.470 310.000 1.000
9.480 308.000 1.000
9.490 314.000 1.000
9.500 310.000 1.000
9.510 316.000 1.000
9.520 325.000 1.000
9.530 317.000 1.000
9.540 324.000 1.000
9.550 339.000 1.000
9.560 338.000 1.000
9.570 332.000 1.000
9.580 341.000 1.000
9.590 341.000 1.000
9.600 335.000 1.000
9.610 315.000 1.000
9.620 324.000 1.000
9.630 317.000 1.000
9.640 293.000 1.000
9.650 313.000 1.000
9.660 318.000 1.000
9.670 315.000 1.000
9.680 309.000 1.000
9.690 334.000 1.000
9.700 323.000 1.000
9.710 353.000 1.000
9.720 350.000 1.000
9.730 313.000 1.000
9.740 302.000 1.000
9.750 326.000 1.000
9.760 329.000 1.000
9.770 333.000 1.000
9.780 334.000 1.000
9.790 347.000 1.000
9.800 331.000 1.000
9.810 321.000 1.000
9.820 326.000 1.000
9.830 318.000 1.000
9.840 310.000 1.000
9.850 333.000 1.000
9.860 327.000 1.000
9.870 320.000 1.000
9.880 317.000 1.000
9.890 339.000 1.000
9.900 334.000 1.000
9.910 312.000 1.000
9.920 301.000 1.000
9.930 310.000 1.000
9.940 304.000 1.000
9.950 316.000 1.000
9.960 322.000 1.000
9.970 316.000 1.000
9.980 309.000 1.000
9.990 305.000 1.000
10.000 302.000 1.000
10.010 297.000 1.000
10.020 304.000 1.000
10.030 318.000 1.000
10.040 317.000 1.000
10.050 319.000 1.000
10.060 320.000 1.000
10.070 316.000 1.000
10.080 339.000 1.000
10.090 307.000 1.000
10.100 319.000 1.000
10.110 309.000 1.000
10.120 324.000 1.000
10.130 301.000 1.000
10.140 328.000 1.000
10.150 326.000 1.000
10.160 335.000 1.000
10.170 362.000 1.000
10.180 320.000 1.000
10.190 309.000 1.000
10.200 300.000 1.000
10.210 302.000 1.000
10.220 315.000 1.000
10.230 323.000 1.000
10.240 305.000 1.000
10.250 305.000 1.000
10.260 306.000 1.000
10.270 295.000 1.000
10.280 310.000 1.000
10.290 338.000 1.000
10.300 325.000 1.000
10.310 300.000 1.000
10.320 336.000 1.000
10.330 342.000 1.000
10.340 331.000 1.000
10.350 345.000 1.000
10.360 337.000 1.000
10.370 340.000 1.000
10.380 332.000 1.000
10.390 331.000 1.000
10.400 347.000 1.000
10.410 344.000 1.000
10.420 334.000 1.000
10.430 319.000 1.000
10.440 332.000 1.000
10.450 360.000 1.000
10.460 364.000 1.000
10.470 357.000 1.000
10.480 367.000 1.000
10.490 393.000 1.000
10.500 401.000 1.000
10.510 397.000 1.000
10.520 397.000 1.000
10.530 394.000 1.000
10.540 410.000 1.000
10.550 434.000 1.000
10.560 461.000 1.000
10.570 433.000 1.000
10.580 421.000 1.000
10.590 469.000 1.000
10.600 500.000 1.000
10.610 522.000 1.000
10.620 545.000 1.000
10.630 588.000 1.000
10.640 667.000 1.000
10.650 713.000 1.000
10.660 748.000 1.000
10.670 828.000 1.000
10.680 902.000 1.000
10.690 1017.000 1.000
10.700 1218.000 1.000
10.710 1540.000 1.000
10.720 1790.000 1.000
10.730 2187.000 1.000
10.740 2478.000 1.000
10.750 2910.000 1.000
10.760 3267.000 1.000
10.770 3539.000 1.000
10.780 3965.000 1.000
10.790 4437.000 1.000
10.800 4856.000 1.000
10.810 5137.000 1.000
10.820 5378.000 1.000
10.830 5417.000 1.000
10.840 5193.000 1.000
10.850 4748.000 1.000
10.860 4254.000 1.000
10.870 3712.000 1.000
10.880 3060.000 1.000
10.890 2629.000 1.000
10.900 2171.000 1.000
10.910 1790.000 1.000
10.920 1509.000 1.000
10.930 1369.000 1.000
10.940 1211.000 1.000
10.950 1052.000 1.000
10.960 949.000 1.000
10.970 872.000 1.000
10.980 790.000 1.000
10.990 725.000 1.000
11.000 640.000 1.000
11.010 618.000 1.000
11.020 628.000 1.000
11.030 574.000 1.000
11.040 571.000 1.000
11.050 558.000 1.000
11.060 584.000 1.000
11.070 605.000 1.000
11.080 620.000 1.000
11.090 656.000 1.000
11.100 675.000 1.000
11.110 661.000 1.000
11.120 708.000 1.000
11.130 745.000 1.000
11.140 762.000 1.000
11.150 828.000 1.000
11.160 868.000 1.000
11.170 950.000 1.000
11.180 974.000 1.000
11.190 1062.000 1.000
11.200 1127.000 1.000
11.210 1246.000 1.000
11.220 1351.000 1.000
11.230 1422.000 1.000
11.240 1561.000 1.000
11.250 1654.000 1.000
11.260 1747.000 1.000
11.270 1830.000 1.000
11.280 1838.000 1.000
11.290 1760.000 1.000
11.300 1658.000 1.000
11.310 1531.000 1.000
11.320 1401.000 1.000
11.330 1189.000 1.000
11.340 1063.000 1.000
11.350 890.000 1.000
11.360 795.000 1.000
11.370 678.000 1.000
11.380 637.000 1.000
11.390 629.000 1.000
11.400 580.000 1.000
11.410 560.000 1.000
11.420 531.000 1.000
11.430 509.000 1.000
11.440 482.000 1.000
11.450 479.000 1.000
11.460 480.000 1.000
11.470 478.000 1.000
11.480 456.000 1.000
11.490 461.000 1.000
11.500 458.000 1.000
11.510 447.000 1.000
11.520 449.000 1.000
11.530 424.000 1.000
11.540 436.000 1.000
11.550 413.000 1.000
11.560 427.000 1.000
11.570 443.000 1.000
11.580 454.000 1.000
11.590 414.000 1.000
11.600 416.000 1.000
11.610 386.000 1.000
11.620 392.000 1.000
11.630 414.000 1.000
11.640 416.000 1.000
11.650 428.000 1.000
11.660 426.000 1.000
11.670 408.000 1.000
11.680 399.000 1.000
11.690 380.000 1.000
11.700 376.000 1.000
11.710 389.000 1.000
11.720 384.000 1.000
11.730 384.000 1.000
11.740 379.000 1.000
11.750 381.000 1.000
11.760 369.000 1.000
11.770 398.000 1.000
11.780 359.000 1.000
11.790 348.000 1.000
11.800 380.000 1.000
11.810 398.000 1.000
11.820 372.000 1.000
11.830 352.000 1.000
11.840 382.000 1.000
11.850 381.000 1.000
11.860 354.000 1.000
11.870 380.000 1.000
11.880 359.000 1.000
11.890 359.000 1.000
11.900 360.000 1.000
11.910 361.000 1.000
11.920 360.000 1.000
11.930 355.000 1.000
11.940 336.000 1.000
11.950 358.000 1.000
11.960 337.000 1.000
11.970 349.000 1.000
11.980 370.000 1.000
11.990 353.000 1.000
12.000 355.000 1.000
12.010 344.000 1.000
12.020 351.000 1.000
12.030 355.000 1.000
12.040 351.000 1.000
12.050 357.000 1.000
12.060 346.000 1.000
12.070 322.000 1.000
12.080 338.000 1.000
12.090 341.000 1.000
12.100 339.000 1.000
12.110 352.000 1.000
12.120 348.000 1.000
12.130 343.000 1.000
12.140 351.000 1.000
12.150 334.000 1.000
12.160 350.000 1.000
12.170 353.000 1.000
12.180 321.000 1.000
12.190 327.000 1.000
12.200 340.000 1.000
12.210 348.000 1.000
12.220 345.000 1.000
12.230 316.000 1.000
12.240 323.000 1.000
12.250 353.000 1.000
12.260 342.000 1.000
12.270 342.000 1.000
12.280 349.000 1.000
12.290 346.000 1.000
12.300 329.000 1.000
12.310 325.000 1.000
12.320 343.000 1.000
12.330 357.000 1.000
12.340 348.000 1.000
12.350 331.000 1.000
12.360 337.000 1.000
12.370 346.000 1.000
12.380 319.000 1.000
12.390 338.000 1.000
12.400 326.000 1.000
12.410 346.000 1.000
12.420 341.000 1.000
12.430 344.000 1.000
12.440 331.000 1.000
12.450 313.000 1.000
12.460 299.000 1.000
12.470 339.000 1.000
12.480 327.000 1.000
12.490 331.000 1.000
12.500 346.000 1.000
12.510 341.000 1.000
12.520 324.000 1.000
12.530 334.000 1.000
12.540 326.000 1.000
12.550 328.000 1.000
12.560 314.000 1.000
12.570 322.000 1.000
12.580 328.000 1.000
12.590 321.000 1.000
12.600 356.000 1.000
12.610 328.000 1.000
12.620 324.000 1.000
12.630 313.000 1.000
12.640 307.000 1.000
12.650 346.000 1.000
12.660 329.000 1.000
12.670 316.000 1.000
12.680 311.000 1.000
12.690 312.000 1.000
12.700 313.000 1.000
12.710 295.000 1.000
12.720 293.000 1.000
12.730 321.000 1.000
12.740 328.000 1.000
12.750 321.000 1.000
12.760 307.000 1.000
12.770 322.000 1.000
12.780 326.000 1.000
12.790 330.000 1.000
12.800 313.000 1.000
12.810 317.000 1.000
12.820 323.000 1.000
12.830 308.000 1.000
12.840 324.000 1.000
12.850 341.000 1.000
12.860 302.000 1.000
12.870 323.000 1.000
12.880 319.000 1.000
12.890 320.000 1.000
12.900 320.000 1.000
12.910 349.000 1.000
12.920 336.000 1.000
12.930 301.000 1.000
12.940 312.000 1.000
12.950 325.000 1.000
12.960 334.000 1.000
12.970 326.000 1.000
12.980 321.000 1.000
12.990 327.000 1.000
13.000 324.000 1.000
13.010 337.000 1.000
13.020 342.000 1.000
13.030 308.000 1.000
13.040 318.000 1.000
13.050 332.000 1.000
13.060 327.000 1.000
13.070 342.000 1.000
13.080 332.000 1.000
13.090 301.000 1.000
13.100 310.000 1.000
13.110 338.000 1.000
13.120 333.000 1.000
13.130 342.000 1.000
13.140 349.000 1.000
13.150 335.000 1.000
13.160 330.000 1.000
13.170 336.000 1.000
13.180 334.000 1.000
13.190 353.000 1.000
13.200 365.000 1.000
13.210 364.000 1.000
13.220 369.000 1.000
13.230 369.000 1.000
13.240 349.000 1.000
13.250 387.000 1.000
13.260 388.000 1.000
13.270 385.000 1.000
13.280 384.000 1.000
13.290 399.000 1.000
13.300 421.000 1.000
13.310 421.000 1.000
13.320 428.000 1.000
13.330 460.000 1.000
13.340 450.000 1.000
13.350 454.000 1.000
13.360 477.000 1.000
13.370 501.000 1.000
13.380 535.000 1.000
13.390 558.000 1.000
13.400 562.000 1.000
13.410 598.000 1.000
13.420 644.000 1.000
13.430 671.000 1.000
13.440 632.000 1.000
13.450 669.000 1.000
13.460 691.000 1.000
13.470 686.000 1.000
13.480 668.000 1.000
13.490 650.000 1.000
13.500 666.000 1.000
13.510 636.000 1.000
13.520 638.000 1.000
13.530 631.000 1.000
13.540 629.000 1.000
13.550 578.000 1.000
13.560 539.000 1.000
13.570 501.000 1.000
13.580 511.000 1.000
13.590 477.000 1.000
13.600 449.000 1.000
13.610 446.000 1.000
13.620 425.000 1.000
13.630 420.000 1.000
13.640 408.000 1.000
13.650 396.000 1.000
13.660 376.000 1.000
13.670 375.000 1.000
13.680 356.000 1.000
13.690 359.000 1.000
13.700 366.000 1.000
13.710 372.000 1.000
13.720 341.000 1.000
13.730 345.000 1.000
13.740 337.000 1.000
13.750 309.000 1.000
13.760 318.000 1.000
13.770 327.000 1.000
13.780 342.000 1.000
13.790 345.000 1.000
13.800 324.000 1.000
13.810 338.000 1.000
13.820 339.000 1.000
13.830 343.000 1.000
13.840 346.000 1.000
13.850 332.000 1.000
13.860 328.000 1.000
13.870 313.000 1.000
13.880 295.000 1.000
13.890 319.000 1.000
13.900 330.000 1.000
13.910 328.000 1.000
13.920 328.000 1.000
13.930 344.000 1.000
13.940 316.000 1.000
13.950 307.000 1.000
13.960 345.000 1.000
13.970 321.000 1.000
13.980 312.000 1.000
13.990 322.000 1.000
14.000 330.000 1.000
14.010 338.000 1.000
14.020 356.000 1.000
14.030 335.000 1.000
14.040 323.000 1.000
14.050 319.000 1.000
14.060 307.000 1.000
14.070 314.000 1.000
14.080 322.000 1.000
14.090 301.000 1.000
14.100 306.000 1.000
14.110 303.000 1.000
14.120 305.000 1.000
14.130 315.000 1.000
14.140 315.000 1.000
14.150 321.000 1.000
14.160 314.000 1.000
14.170 315.000 1.000
14.180 309.000 1.000
14.190 314.000 1.000
14.200 323.000 1.000
14.210 323.000 1.000
14.220 317.000 1.000
14.230 312.000 1.000
14.240 335.000 1.000
14.250 320.000 1.000
14.260 307.000 1.000
14.270 348.000 1.000
14.280 331.000 1.000
14.290 312.000 1.000
14.300 315.000 1.000
14.310 305.000 1.000
14.320 303.000 1.000
14.330 337.000 1.000
14.340 338.000 1.000
14.350 323.000 1.000
14.360 316.000 1.000
14.370 324.000 1.000
14.380 340.000 1.000
14.390 338.000 1.000
14.400 344.000 1.000
14.410 336.000 1.000
14.420 307.000 1.000
14.430 314.000 1.000
14.440 337.000 1.000
14.450 349.000 1.000
14.460 322.000 1.000
14.470 340.000 1.000
14.480 339.000 1.000
14.490 330.000 1.000
14.500 326.000 1.000
14.510 312.000 1.000
14.520 328.000 1.000
14.530 312.000 1.000
14.540 323.000 1.000
14.550 306.000 1.000
14.560 321.000 1.000
14.570 301.000 1.000
14.580 294.000 1.000
14.590 321.000 1.000
14.600 316.000 1.000
14.610 311.000 1.000
14.620 314.000 1.000
14.630 318.000 1.000
14.640 326.000 1.000
14.650 326.000 1.000
14.660 328.000 1.000
14.670 314.000 1.000
14.680 325.000 1.000
14.690 323.000 1.000
14.700 320.000 1.000
14.710 326.000 1.000
14.720 288.000 1.000
14.730 289.000 1.000
14.740 307.000 1.000
14.750 336.000 1.000
14.760 323.000 1.000
14.770 310.000 1.000
14.780 300.000 1.000
14.790 304.000 1.000
14.800 309.000 1.000
14.810 328.000 1.000
14.820 325.000 1.000
14.830 322.000 1.000
14.840 329.000 1.000
14.850 320.000 1.000
14.860 320.000 1.000
14.870 314.000 1.000
14.880 323.000 1.000
14.890 321.000 1.000
14.900 337.000 1.000
14.910 327.000 1.000
14.920 325.000 1.000
14.930 331.000 1.000
14.940 347.000 1.000
14.950 337.000 1.000
14.960 321.000 1.000
14.970 313.000 1.000
14.980 288.000 1.000
14.990 326.000 1.000
15.000 336.000 1.000
15.010 326.000 1.000
15.020 327.000 1.000
15.030 306.000 1.000
15.040 320.000 1.000
15.050 326.000 1.000
15.060 339.000 1.000
15.070 339.000 1.000
15.080 313.000 1.000
15.090 317.000 1.000
15.100 340.000 1.000
15.110 324.000 1.000
15.120 325.000 1.000
15.130 324.000 1.000
15.140 341.000 1.000
15.150 319.000 1.000
15.160 332.000 1.000
15.170 319.000 1.000
15.180 331.000 1.000
15.190 343.000 1.000
15.200 317.000 1.000
15.210 323.000 1.000
15.220 342.000 1.000
15.230 335.000 1.000
15.240 319.000 1.000
15.250 307.000 1.000
15.260 319.000 1.000
15.270 320.000 1.000
15.280 307.000 1.000
15.290 322.000 1.000
15.300 328.000 1.000
15.310 318.000 1.000
15.320 324.000 1.000
15.330 342.000 1.000
15.340 349.000 1.000
15.350 337.000 1.000
15.360 376.000 1.000
15.370 364.000 1.000
15.380 364.000 1.000
15.390 353.000 1.000
15.400 378.000 1.000
15.410 376.000 1.000
15.420 364.000 1.000
15.430 356.000 1.000
15.440 378.000 1.000
15.450 394.000 1.000
15.460 381.000 1.000
15.470 392.000 1.000
15.480 417.000 1.000
15.490 398.000 1.000
15.500 385.000 1.000
15.510 400.000 1.000
15.520 390.000 1.000
15.530 425.000 1.000
15.540 464.000 1.000
15.550 459.000 1.000
15.560 473.000 1.000
15.570 446.000 1.000
15.580 442.000 1.000
15.590 458.000 1.000
15.600 500.000 1.000
15.610 499.000 1.000
15.620 493.000 1.000
15.630 520.000 1.000
15.640 531.000 1.000
15.650 543.000 1.000
15.660 527.000 1.000
15.670 533.000 1.000
15.680 546.000 1.000
15.690 560.000 1.000
15.700 592.000 1.000
15.710 610.000 1.000
15.720 584.000 1.000
15.730 574.000 1.000
15.740 605.000 1.000
15.750 620.000 1.000
15.760 628.000 1.000
15.770 671.000 1.000
15.780 698.000 1.000
15.790 697.000 1.000
15.800 798.000 1.000
15.810 873.000 1.000
15.820 887.000 1.000
15.830 977.000 1.000
15.840 1040.000 1.000
15.850 1122.000 1.000
15.860 1230.000 1.000
15.870 1365.000 1.000
15.880 1508.000 1.000
15.890 1645.000 1.000
15.900 1816.000 1.000
15.910 1979.000 1.000
15.920 2166.000 1.000
15.930 2397.000 1.000
15.940 2615.000 1.000
15.950 2754.000 1.000
15.960 2909.000 1.000
15.970 3049.000 1.000
15.980 3078.000 1.000
15.990 2989.000 1.000
16.000 2959.000 1.000
16.010 2700.000 1.000
16.020 2332.000 1.000
16.030 2037.000 1.000
16.040 1769.000 1.000
16.050 1527.000 1.000
16.060 1300.000 1.000
16.070 1143.000 1.000
16.080 961.000 1.000
16.090 851.000 1.000
16.100 800.000 1.000
16.110 746.000 1.000
16.120 690.000 1.000
16.130 657.000 1.000
16.140 609.000 1.000
16.150 596.000 1.000
16.160 610.000 1.000
16.170 600.000 1.000
16.180 570.000 1.000
16.190 559.000 1.000
16.200 542.000 1.000
16.210 503.000 1.000
16.220 503.000 1.000
16.230 507.000 1.000
16.240 500.000 1.000
16.250 524.000 1.000
16.260 487.000 1.000
16.270 465.000 1.000
16.280 465.000 1.000
16.290 487.000 1.000
16.300 439.000 1.000
16.310 450.000 1.000
16.320 444.000 1.000
16.330 448.000 1.000
16.340 424.000 1.000
16.350 426.000 1.000
16.360 431.000 1.000
16.370 436.000 1.000
16.380 423.000 1.000
16.390 424.000 1.000
16.400 431.000 1.000
16.410 444.000 1.000
16.420 417.000 1.000
16.430 440.000 1.000
16.440 448.000 1.000
16.450 422.000 1.000
16.460 401.000 1.000
16.470 418.000 1.000
16.480 399.000 1.000
16.490 383.000 1.000
16.500 400.000 1.000
16.510 392.000 1.000
16.520 379.000 1.000
16.530 378.000 1.000
16.540 371.000 1.000
16.550 379.000 1.000
16.560 364.000 1.000
16.570 353.000 1.000
16.580 360.000 1.000
16.590 383.000 1.000
16.600 401.000 1.000
16.610 403.000 1.000
16.620 389.000 1.000
16.630 382.000 1.000
16.640 387.000 1.000
16.650 362.000 1.000
16.660 360.000 1.000
16.670 369.000 1.000
16.680 368.000 1.000
16.690 369.000 1.000
16.700 372.000 1.000
16.710 388.000 1.000
16.720 369.000 1.000
16.730 372.000 1.000
16.740 392.000 1.000
16.750 369.000 1.000
16.760 359.000 1.000
16.770 385.000 1.000
16.780 405.000 1.000
16.790 380.000 1.000
16.800 356.000 1.000
16.810 354.000 1.000
16.820 359.000 1.000
16.830 367.000 1.000
16.840 359.000 1.000
16.850 359.000 1.000
16.860 361.000 1.000
16.870 355.000 1.000
16.880 360.000 1.000
16.890 365.000 1.000
16.900 356.000 1.000
16.910 381.000 1.000
16.920 372.000 1.000
16.930 352.000 1.000
16.940 330.000 1.000
16.950 339.000 1.000
16.960 339.000 1.000
16.970 333.000 1.000
16.980 318.000 1.000
16.990 324.000 1.000
17.000 322.000 1.000
17.010 340.000 1.000
17.020 361.000 1.000
17.030 368.000 1.000
17.040 348.000 1.000
17.050 331.000 1.000
17.060 363.000 1.000
17.070 361.000 1.000
17.080 366.000 1.000
17.090 359.000 1.000
17.100 382.000 1.000
17.110 384.000 1.000
17.120 341.000 1.000
17.130 355.000 1.000
17.140 375.000 1.000
17.150 357.000 1.000
17.160 353.000 1.000
17.170 351.000 1.000
17.180 349.000 1.000
17.190 353.000 1.000
17.200 372.000 1.000
17.210 342.000 1.000
17.220 352.000 1.000
17.230 352.000 1.000
17.240 341.000 1.000
17.250 347.000 1.000
17.260 321.000 1.000
17.270 345.000 1.000
17.280 338.000 1.000
17.290 341.000 1.000
17.300 376.000 1.000
17.310 362.000 1.000
17.320 357.000 1.000
17.330 359.000 1.000
17.340 354.000 1.000
17.350 370.000 1.000
17.360 352.000 1.000
17.370 353.000 1.000
17.380 355.000 1.000
17.390 362.000 1.000
17.400 365.000 1.000
17.410 391.000 1.000
17.420 372.000 1.000
17.430 361.000 1.000
17.440 350.000 1.000
17.450 379.000 1.000
17.460 404.000 1.000
17.470 336.000 1.000
17.480 354.000 1.000
17.490 357.000 1.000
17.500 349.000 1.000
17.510 355.000 1.000
17.520 350.000 1.000
17.530 358.000 1.000
17.540 345.000 1.000
17.550 352.000 1.000
17.560 347.000 1.000
17.570 345.000 1.000
17.580 343.000 1.000
17.590 345.000 1.000
17.600 345.000 1.000
17.610 365.000 1.000
17.620 372.000 1.000
17.630 362.000 1.000
17.640 382.000 1.000
17.650 383.000 1.000
17.660 398.000 1.000
17.670 374.000 1.000
17.680 347.000 1.000
17.690 360.000 1.000
17.700 385.000 1.000
17.710 360.000 1.000
17.720 379.000 1.000
17.730 426.000 1.000
17.740 431.000 1.000
17.750 440.000 1.000
17.760 449.000 1.000
17.770 455.000 1.000
17.780 464.000 1.000
17.790 488.000 1.000
17.800 510.000 1.000
17.810 530.000 1.000
17.820 560.000 1.000
17.830 568.000 1.000
17.840 573.000 1.000
17.850 591.000 1.000
17.860 580.000 1.000
17.870 584.000 1.000
17.880 553.000 1.000
17.890 570.000 1.000
17.900 572.000 1.000
17.910 515.000 1.000
17.920 487.000 1.000
17.930 493.000 1.000
17.940 454.000 1.000
17.950 447.000 1.000
17.960 427.000 1.000
17.970 384.000 1.000
17.980 393.000 1.000
17.990 402.000 1.000
18.000 357.000 1.000
18.010 360.000 1.000
18.020 367.000 1.000
18.030 364.000 1.000
18.040 342.000 1.000
18.050 350.000 1.000
18.060 378.000 1.000
18.070 359.000 1.000
18.080 349.000 1.000
18.090 350.000 1.000
18.100 378.000 1.000
18.110 349.000 1.000
18.120 328.000 1.000
18.130 343.000 1.000
18.140 334.000 1.000
18.150 313.000 1.000
18.160 348.000 1.000
18.170 350.000 1.000
18.180 326.000 1.000
18.190 355.000 1.000
18.200 349.000 1.000
18.210 350.000 1.000
18.220 348.000 1.000
18.230 367.000 1.000
18.240 344.000 1.000
18.250 351.000 1.000
18.260 363.000 1.000
18.270 350.000 1.000
18.280 366.000 1.000
18.290 356.000 1.000
18.300 328.000 1.000
18.310 326.000 1.000
18.320 328.000 1.000
18.330 350.000 1.000
18.340 376.000 1.000
18.350 347.000 1.000
18.360 340.000 1.000
18.370 317.000 1.000
18.380 326.000 1.000
18.390 338.000 1.000
18.400 344.000 1.000
18.410 347.000 1.000
18.420 338.000 1.000
18.430 336.000 1.000
18.440 330.000 1.000
18.450 331.000 1.000
18.460 337.000 1.000
18.470 349.000 1.000
18.480 327.000 1.000
18.490 328.000 1.000
18.500 336.000 1.000
18.510 343.000 1.000
18.520 365.000 1.000
18.530 354.000 1.000
18.540 331.000 1.000
18.550 357.000 1.000
18.560 363.000 1.000
18.570 354.000 1.000
18.580 349.000 1.000
18.590 333.000 1.000
18.600 352.000 1.000
18.610 370.000 1.000
18.620 363.000 1.000
18.630 364.000 1.000
18.640 355.000 1.000
18.650 335.000 1.000
18.660 336.000 1.000
18.670 338.000 1.000
18.680 325.000 1.000
18.690 350.000 1.000
18.700 368.000 1.000
18.710 349.000 1.000
18.720 346.000 1.000
18.730 335.000 1.000
18.740 378.000 1.000
18.750 364.000 1.000
18.760 337.000 1.000
18.770 342.000 1.000
18.780 359.000 1.000
18.790 352.000 1.000
18.800 343.000 1.000
18.810 318.000 1.000
18.820 340.000 1.000
18.830 331.000 1.000
18.840 339.000 1.000
18.850 330.000 1.000
18.860 354.000 1.000
18.870 333.000 1.000
18.880 296.000 1.000
18.890 342.000 1.000
18.900 374.000 1.000
18.910 364.000 1.000
18.920 370.000 1.000
18.930 355.000 1.000
18.940 358.000 1.000
18.950 350.000 1.000
18.960 336.000 1.000
18.970 340.000 1.000
18.980 330.000 1.000
18.990 350.000 1.000
19.000 364.000 1.000
19.010 349.000 1.000
19.020 374.000 1.000
19.030 383.000 1.000
19.040 375.000 1.000
19.050 370.000 1.000
19.060 365.000 1.000
19.070 363.000 1.000
19.080 389.000 1.000
19.090 361.000 1.000
19.100 350.000 1.000
19.110 346.000 1.000
19.120 335.000 1.000
19.130 368.000 1.000
19.140 400.000 1.000
19.150 432.000 1.000
19.160 414.000 1.000
19.170 426.000 1.000
19.180 427.000 1.000
19.190 441.000 1.000
19.200 454.000 1.000
19.210 485.000 1.000
19.220 519.000 1.000
19.230 514.000 1.000
19.240 543.000 1.000
19.250 552.000 1.000
19.260 597.000 1.000
19.270 598.000 1.000
19.280 612.000 1.000
19.290 615.000 1.000
19.300 667.000 1.000
19.310 666.000 1.000
19.320 634.000 1.000
19.330 670.000 1.000
19.340 666.000 1.000
19.350 656.000 1.000
19.360 643.000 1.000
19.370 602.000 1.000
19.380 569.000 1.000
19.390 524.000 1.000
19.400 485.000 1.000
19.410 498.000 1.000
19.420 476.000 1.000
19.430 466.000 1.000
19.440 477.000 1.000
19.450 445.000 1.000
19.460 441.000 1.000
19.470 445.000 1.000
19.480 457.000 1.000
19.490 434.000 1.000
19.500 436.000 1.000
19.510 454.000 1.000
19.520 449.000 1.000
19.530 434.000 1.000
19.540 439.000 1.000
19.550 434.000 1.000
19.560 410.000 1.000
19.570 413.000 1.000
19.580 431.000 1.000
19.590 432.000 1.000
19.600 423.000 1.000
19.610 423.000 1.000
19.620 393.000 1.000
19.630 409.000 1.000
19.640 432.000 1.000
19.650 417.000 1.000
19.660 413.000 1.000
19.670 419.000 1.000
19.680 419.000 1.000
19.690 408.000 1.000
19.700 435.000 1.000
19.710 429.000 1.000
19.720 392.000 1.000
19.730 393.000 1.000
19.740 405.000 1.000
19.750 427.000 1.000
19.760 411.000 1.000
19.770 363.000 1.000
19.780 386.000 1.000
19.790 414.000 1.000
19.800 400.000 1.000
19.810 377.000 1.000
19.820 381.000 1.000
19.830 380.000 1.000
19.840 397.000 1.000
19.850 383.000 1.000
19.860 367.000 1.000
19.870 376.000 1.000
19.880 357.000 1.000
19.890 362.000 1.000
19.900 341.000 1.000
19.910 321.000 1.000
19.920 357.000 1.000
19.930 385.000 1.000
19.940 368.000 1.000
19.950 351.000 1.000
19.960 362.000 1.000
19.970 392.000 1.000
19.980 386.000 1.000
19.990 359.000 1.000
20.000 381.000 1.000
20.010 380.000 1.000
20.020 376.000 1.000
20.030 381.000 1.000
20.040 385.000 1.000
20.050 346.000 1.000
20.060 360.000 1.000
20.070 354.000 1.000
20.080 356.000 1.000
20.090 350.000 1.000
20.100 372.000 1.000
20.110 372.000 1.000
20.120 341.000 1.000
20.130 343.000 1.000
20.140 357.000 1.000
20.150 362.000 1.000
20.160 356.000 1.000
20.170 352.000 1.000
20.180 379.000 1.000
20.190 385.000 1.000
20.200 367.000 1.000
20.210 354.000 1.000
20.220 358.000 1.000
20.230 336.000 1.000
20.240 343.000 1.000
20.250 336.000 1.000
20.260 370.000 1.000
20.270 351.000 1.000
20.280 363.000 1.000
20.290 348.000 1.000
20.300 372.000 1.000
20.310 404.000 1.000
20.320 399.000 1.000
20.330 386.000 1.000
20.340 367.000 1.000
20.350 371.000 1.000
20.360 374.000 1.000
20.370 349.000 1.000
20.380 346.000 1.000
20.390 349.000 1.000
20.400 365.000 1.000
20.410 365.000 1.000
20.420 358.000 1.000
20.430 347.000 1.000
20.440 357.000 1.000
20.450 366.000 1.000
20.460 383.000 1.000
20.470 361.000 1.000
20.480 387.000 1.000
20.490 359.000 1.000
20.500 372.000 1.000
20.510 392.000 1.000
20.520 397.000 1.000
20.530 383.000 1.000
20.540 368.000 1.000
20.550 364.000 1.000
20.560 378.000 1.000
20.570 376.000 1.000
20.580 366.000 1.000
20.590 349.000 1.000
20.600 359.000 1.000
20.610 399.000 1.000
20.620 400.000 1.000
20.630 409.000 1.000
20.640 399.000 1.000
20.650 391.000 1.000
20.660 409.000 1.000
20.670 396.000 1.000
20.680 397.000 1.000
20.690 419.000 1.000
20.700 415.000 1.000
20.710 389.000 1.000
20.720 409.000 1.000
20.730 391.000 1.000
20.740 407.000 1.000
20.750 423.000 1.000
20.760 417.000 1.000
20.770 450.000 1.000
20.780 443.000 1.000
20.790 458.000 1.000
20.800 465.000 1.000
20.810 498.000 1.000
20.820 528.000 1.000
20.830 521.000 1.000
20.840 541.000 1.000
20.850 570.000 1.000
20.860 613.000 1.000
20.870 615.000 1.000
20.880 628.000 1.000
20.890 638.000 1.000
20.900 639.000 1.000
20.910 667.000 1.000
20.920 697.000 1.000
20.930 696.000 1.000
20.940 703.000 1.000
20.950 668.000 1.000
20.960 673.000 1.000
20.970 627.000 1.000
20.980 601.000 1.000
20.990 609.000 1.000
21.000 613.000 1.000
21.010 607.000 1.000
21.020 593.000 1.000
21.030 556.000 1.000
21.040 528.000 1.000
21.050 535.000 1.000
21.060 528.000 1.000
21.070 541.000 1.000
21.080 516.000 1.000
21.090 547.000 1.000
21.100 558.000 1.000
21.110 533.000 1.000
21.120 502.000 1.000
21.130 508.000 1.000
21.140 529.000 1.000
21.150 526.000 1.000
21.160 521.000 1.000
21.170 545.000 1.000
21.180 589.000 1.000
21.190 562.000 1.000
21.200 562.000 1.000
21.210 582.000 1.000
21.220 579.000 1.000
21.230 578.000 1.000
21.240 574.000 1.000
21.250 588.000 1.000
21.260 592.000 1.000
21.270 626.000 1.000
21.280 621.000 1.000
21.290 598.000 1.000
21.300 599.000 1.000
21.310 620.000 1.000
21.320 597.000 1.000
21.330 644.000 1.000
21.340 690.000 1.000
21.350 657.000 1.000
21.360 676.000 1.000
21.370 691.000 1.000
21.380 692.000 1.000
21.390 718.000 1.000
21.400 759.000 1.000
21.410 765.000 1.000
21.420 795.000 1.000
21.430 839.000 1.000
21.440 851.000 1.000
21.450 850.000 1.000
21.460 890.000 1.000
21.470 1000.000 1.000
21.480 1033.000 1.000
21.490 1115.000 1.000
21.500 1275.000 1.000
21.510 1432.000 1.000
21.520 1548.000 1.000
21.530 1661.000 1.000
21.540 1946.000 1.000
21.550 2185.000 1.000
21.560 2414.000 1.000
21.570 2780.000 1.000
21.580 3436.000 1.000
21.590 4293.000 1.000
21.600 5488.000 1.000
21.610 6442.000 1.000
21.620 7224.000 1.000
21.630 7896.000 1.000
21.640 8286.000 1.000
21.650 8666.000 1.000
21.660 8802.000 1.000
21.670 9504.000 1.000
21.680 10489.000 1.000
21.690 10786.000 1.000
21.700 10890.000 1.000
21.710 10972.000 1.000
21.720 11176.000 1.000
21.730 10929.000 1.000
21.740 10579.000 1.000
21.750 10455.000 1.000
21.760 10711.000 1.000
21.770 10456.000 1.000
21.780 9951.000 1.000
21.790 9723.000 1.000
21.800 9479.000 1.000
21.810 9248.000 1.000
21.820 9053.000 1.000
21.830 8904.000 1.000
21.840 8859.000 1.000
21.850 8940.000 1.000
21.860 8944.000 1.000
21.870 8918.000 1.000
21.880 8805.000 1.000
21.890 8871.000 1.000
21.900 8812.000 1.000
21.910 8865.000 1.000
21.920 8790.000 1.000
21.930 8643.000 1.000
21.940 8563.000 1.000
21.950 8294.000 1.000
21.960 8068.000 1.000
21.970 7837.000 1.000
21.980 7289.000 1.000
21.990 6775.000 1.000
22.000 5944.000 1.000
22.010 5324.000 1.000
22.020 4793.000 1.000
22.030 4040.000 1.000
22.040 3513.000 1.000
22.050 2970.000 1.000
22.060 2492.000 1.000
22.070 2083.000 1.000
22.080 1772.000 1.000
22.090 1461.000 1.000
22.100 1305.000 1.000
22.110 1240.000 1.000
22.120 1086.000 1.000
22.130 980.000 1.000
22.140 968.000 1.000
22.150 988.000 1.000
22.160 936.000 1.000
22.170 940.000 1.000
22.180 897.000 1.000
22.190 867.000 1.000
22.200 846.000 1.000
22.210 870.000 1.000
22.220 837.000 1.000
22.230 826.000 1.000
22.240 814.000 1.000
22.250 839.000 1.000
22.260 839.000 1.000
22.270 855.000 1.000
22.280 843.000 1.000
22.290 802.000 1.000
22.300 805.000 1.000
22.310 840.000 1.000
22.320 771.000 1.000
22.330 767.000 1.000
22.340 796.000 1.000
22.350 821.000 1.000
22.360 812.000 1.000
22.370 765.000 1.000
22.380 762.000 1.000
22.390 785.000 1.000
22.400 768.000 1.000
22.410 759.000 1.000
22.420 744.000 1.000
22.430 715.000 1.000
22.440 733.000 1.000
22.450 720.000 1.000
22.460 695.000 1.000
22.470 694.000 1.000
22.480 678.000 1.000
22.490 684.000 1.000
22.500 698.000 1.000
22.510 671.000 1.000
22.520 676.000 1.000
22.530 661.000 1.000
22.540 666.000 1.000
22.550 633.000 1.000
22.560 647.000 1.000
22.570 659.000 1.000
22.580 661.000 1.000
22.590 701.000 1.000
22.600 695.000 1.000
22.610 705.000 1.000
22.620 702.000 1.000
22.630 668.000 1.000
22.640 633.000 1.000
22.650 684.000 1.000
22.660 711.000 1.000
22.670 679.000 1.000
22.680 660.000 1.000
22.690 675.000 1.000
22.700 643.000 1.000
22.710 655.000 1.000
22.720 654.000 1.000
22.730 628.000 1.000
22.740 656.000 1.000
22.750 688.000 1.000
22.760 650.000 1.000
22.770 651.000 1.000
22.780 642.000 1.000
22.790 648.000 1.000
22.800 651.000 1.000
22.810 636.000 1.000
22.820 613.000 1.000
22.830 654.000 1.000
22.840 637.000 1.000
22.850 654.000 1.000
22.860 638.000 1.000
22.870 620.000 1.000
22.880 611.000 1.000
22.890 631.000 1.000
22.900 646.000 1.000
22.910 649.000 1.000
22.920 662.000 1.000
22.930 673.000 1.000
22.940 696.000 1.000
22.950 699.000 1.000
22.960 718.000 1.000
22.970 752.000 1.000
22.980 760.000 1.000
22.990 823.000 1.000
23.000 833.000 1.000
23.010 926.000 1.000
23.020 959.000 1.000
23.030 1040.000 1.000
23.040 1132.000 1.000
23.050 1131.000 1.000
23.060 1176.000 1.000
23.070 1276.000 1.000
23.080 1303.000 1.000
23.090 1351.000 1.000
23.100 1366.000 1.000
23.110 1415.000 1.000
23.120 1476.000 1.000
23.130 1524.000 1.000
23.140 1494.000 1.000
23.150 1507.000 1.000
23.160 1486.000 1.000
23.170 1452.000 1.000
23.180 1421.000 1.000
23.190 1351.000 1.000
23.200 1332.000 1.000
23.210 1324.000 1.000
23.220 1303.000 1.000
23.230 1260.000 1.000
23.240 1201.000 1.000
23.250 1189.000 1.000
23.260 1197.000 1.000
23.270 1132.000 1.000
23.280 1105.000 1.000
23.290 1093.000 1.000
23.300 1071.000 1.000
23.310 1089.000 1.000
23.320 1115.000 1.000
23.330 1090.000 1.000
23.340 1057.000 1.000
23.350 1029.000 1.000
23.360 1032.000 1.000
23.370 1046.000 1.000
23.380 1006.000 1.000
23.390 995.000 1.000
23.400 985.000 1.000
23.410 950.000 1.000
23.420 893.000 1.000
23.430 852.000 1.000
23.440 789.000 1.000
23.450 788.000 1.000
23.460 741.000 1.000
23.470 723.000 1.000
23.480 688.000 1.000
23.490 632.000 1.000
23.500 636.000 1.000
23.510 632.000 1.000
23.520 589.000 1.000
23.530 586.000 1.000
23.540 537.000 1.000
23.550 517.000 1.000
23.560 524.000 1.000
23.570 520.000 1.000
23.580 543.000 1.000
23.590 561.000 1.000
23.600 527.000 1.000
23.610 511.000 1.000
23.620 513.000 1.000
23.630 506.000 1.000
23.640 471.000 1.000
23.650 503.000 1.000
23.660 509.000 1.000
23.670 488.000 1.000
23.680 504.000 1.000
23.690 521.000 1.000
23.700 503.000 1.000
23.710 509.000 1.000
23.720 509.000 1.000
23.730 510.000 1.000
23.740 485.000 1.000
23.750 512.000 1.000
23.760 511.000 1.000
23.770 517.000 1.000
23.780 519.000 1.000
23.790 514.000 1.000
23.800 503.000 1.000
23.810 543.000 1.000
23.820 575.000 1.000
23.830 549.000 1.000
23.840 551.000 1.000
23.850 543.000 1.000
23.860 604.000 1.000
23.870 624.000 1.000
23.880 667.000 1.000
23.890 694.000 1.000
23.900 704.000 1.000
23.910 742.000 1.000
23.920 835.000 1.000
23.930 841.000 1.000
23.940 871.000 1.000
23.950 936.000 1.000
23.960 978.000 1.000
23.970 1003.000 1.000
23.980 1108.000 1.000
23.990 1168.000 1.000
24.000 1234.000 1.000
24.010 1308.000 1.000
24.020 1354.000 1.000
24.030 1405.000 1.000
24.040 1476.000 1.000
24.050 1520.000 1.000
24.060 1518.000 1.000
24.070 1451.000 1.000
24.080 1394.000 1.000
24.090 1369.000 1.000
24.100 1252.000 1.000
24.110 1122.000 1.000
24.120 1058.000 1.000
24.130 1027.000 1.000
24.140 892.000 1.000
24.150 835.000 1.000
24.160 812.000 1.000
24.170 717.000 1.000
24.180 651.000 1.000
24.190 628.000 1.000
24.200 598.000 1.000
24.210 581.000 1.000
24.220 565.000 1.000
24.230 550.000 1.000
24.240 552.000 1.000
24.250 583.000 1.000
24.260 560.000 1.000
24.270 494.000 1.000
24.280 490.000 1.000
24.290 519.000 1.000
24.300 506.000 1.000
24.310 501.000 1.000
24.320 502.000 1.000
24.330 500.000 1.000
24.340 501.000 1.000
24.350 520.000 1.000
24.360 561.000 1.000
24.370 554.000 1.000
24.380 516.000 1.000
24.390 539.000 1.000
24.400 547.000 1.000
24.410 562.000 1.000
24.420 555.000 1.000
24.430 563.000 1.000
24.440 564.000 1.000
24.450 536.000 1.000
24.460 563.000 1.000
24.470 560.000 1.000
24.480 571.000 1.000
24.490 576.000 1.000
24.500 550.000 1.000
24.510 571.000 1.000
24.520 572.000 1.000
24.530 532.000 1.000
24.540 564.000 1.000
24.550 539.000 1.000
24.560 532.000 1.000
24.570 547.000 1.000
24.580 545.000 1.000
24.590 536.000 1.000
24.600 536.000 1.000
24.610 507.000 1.000
24.620 495.000 1.000
24.630 498.000 1.000
24.640 487.000 1.000
24.650 506.000 1.000
24.660 502.000 1.000
24.670 498.000 1.000
24.680 482.000 1.000
24.690 479.000 1.000
24.700 484.000 1.000
24.710 472.000 1.000
24.720 468.000 1.000
24.730 454.000 1.000
24.740 480.000 1.000
24.750 486.000 1.000
24.760 477.000 1.000
24.770 465.000 1.000
24.780 481.000 1.000
24.790 485.000 1.000
24.800 451.000 1.000
24.810 449.000 1.000
24.820 456.000 1.000
24.830 480.000 1.000
24.840 487.000 1.000
24.850 453.000 1.000
24.860 446.000 1.000
24.870 457.000 1.000
24.880 494.000 1.000
24.890 483.000 1.000
24.900 483.000 1.000
24.910 466.000 1.000
24.920 444.000 1.000
24.930 445.000 1.000
24.940 479.000 1.000
24.950 483.000 1.000
24.960 447.000 1.000
24.970 452.000 1.000
24.980 456.000 1.000
24.990 488.000 1.000
25.000 492.000 1.000
25.010 468.000 1.000
25.020 466.000 1.000
25.030 491.000 1.000
25.040 506.000 1.000
25.050 527.000 1.000
25.060 519.000 1.000
25.070 491.000 1.000
25.080 484.000 1.000
25.090 574.000 1.000
25.100 553.000 1.000
25.110 526.000 1.000
25.120 556.000 1.000
25.130 537.000 1.000
25.140 553.000 1.000
25.150 566.000 1.000
25.160 589.000 1.000
25.170 582.000 1.000
25.180 558.000 1.000
25.190 539.000 1.000
25.200 552.000 1.000
25.210 554.000 1.000
25.220 539.000 1.000
25.230 559.000 1.000
25.240 564.000 1.000
25.250 552.000 1.000
25.260 550.000 1.000
25.270 549.000 1.000
25.280 554.000 1.000
25.290 554.000 1.000
25.300 522.000 1.000
25.310 554.000 1.000
25.320 556.000 1.000
25.330 535.000 1.000
25.340 537.000 1.000
25.350 533.000 1.000
25.360 549.000 1.000
25.370 564.000 1.000
25.380 582.000 1.000
25.390 562.000 1.000
25.400 543.000 1.000
25.410 530.000 1.000
25.420 519.000 1.000
25.430 520.000 1.000
25.440 515.000 1.000
25.450 522.000 1.000
25.460 556.000 1.000
25.470 519.000 1.000
25.480 499.000 1.000
25.490 485.000 1.000
25.500 488.000 1.000
25.510 484.000 1.000
25.520 484.000 1.000
25.530 474.000 1.000
25.540 462.000 1.000
25.550 479.000 1.000
25.560 450.000 1.000
25.570 451.000 1.000
25.580 455.000 1.000
25.590 434.000 1.000
25.600 442.000 1.000
25.610 445.000 1.000
25.620 463.000 1.000
25.630 473.000 1.000
25.640 464.000 1.000
25.650 452.000 1.000
25.660 443.000 1.000
25.670 464.000 1.000
25.680 454.000 1.000
25.690 440.000 1.000
25.700 451.000 1.000
25.710 433.000 1.000
25.720 446.000 1.000
25.730 441.000 1.000
25.740 431.000 1.000
25.750 427.000 1.000
25.760 417.000 1.000
25.770 403.000 1.000
25.780 420.000 1.000
25.790 422.000 1.000
25.800 439.000 1.000
25.810 434.000 1.000
25.820 405.000 1.000
25.830 437.000 1.000
25.840 428.000 1.000
25.850 439.000 1.000
25.860 439.000 1.000
25.870 437.000 1.000
25.880 450.000 1.000
25.890 463.000 1.000
25.900 422.000 1.000
25.910 391.000 1.000
25.920 408.000 1.000
25.930 421.000 1.000
25.940 410.000 1.000
25.950 404.000 1.000
25.960 420.000 1.000
25.970 423.000 1.000
25.980 398.000 1.000
25.990 404.000 1.000
26.000 414.000 1.000
26.010 422.000 1.000
26.020 427.000 1.000
26.030 443.000 1.000
26.040 438.000 1.000
26.050 431.000 1.000
26.060 443.000 1.000
26.070 441.000 1.000
26.080 446.000 1.000
26.090 436.000 1.000
26.100 440.000 1.000
26.110 440.000 1.000
26.120 445.000 1.000
26.130 439.000 1.000
26.140 430.000 1.000
26.150 468.000 1.000
26.160 465.000 1.000
26.170 470.000 1.000
26.180 467.000 1.000
26.190 501.000 1.000
26.200 523.000 1.000
26.210 486.000 1.000
26.220 500.000 1.000
26.230 536.000 1.000
26.240 529.000 1.000
26.250 536.000 1.000
26.260 579.000 1.000
26.270 609.000 1.000
26.280 609.000 1.000
26.290 629.000 1.000
26.300 656.000 1.000
26.310 675.000 1.000
26.320 732.000 1.000
26.330 787.000 1.000
26.340 832.000 1.000
26.350 848.000 1.000
26.360 903.000 1.000
26.370 923.000 1.000
26.380 998.000 1.000
26.390 1013.000 1.000
26.400 997.000 1.000
26.410 986.000 1.000
26.420 1020.000 1.000
26.430 1068.000 1.000
26.440 1079.000 1.000
26.450 1061.000 1.000
26.460 1040.000 1.000
26.470 942.000 1.000
26.480 890.000 1.000
26.490 845.000 1.000
26.500 806.000 1.000
26.510 762.000 1.000
26.520 739.000 1.000
26.530 734.000 1.000
26.540 692.000 1.000
26.550 658.000 1.000
26.560 622.000 1.000
26.570 614.000 1.000
26.580 576.000 1.000
26.590 533.000 1.000
26.600 539.000 1.000
26.610 538.000 1.000
26.620 522.000 1.000
26.630 497.000 1.000
26.640 471.000 1.000
26.650 493.000 1.000
26.660 474.000 1.000
26.670 449.000 1.000
26.680 472.000 1.000
26.690 483.000 1.000
26.700 469.000 1.000
26.710 455.000 1.000
26.720 439.000 1.000
26.730 430.000 1.000
26.740 451.000 1.000
26.750 451.000 1.000
26.760 454.000 1.000
26.770 439.000 1.000
26.780 439.000 1.000
26.790 466.000 1.000
26.800 446.000 1.000
26.810 469.000 1.000
26.820 474.000 1.000
26.830 465.000 1.000
26.840 460.000 1.000
26.850 454.000 1.000
26.860 489.000 1.000
26.870 475.000 1.000
26.880 482.000 1.000
26.890 496.000 1.000
26.900 499.000 1.000
26.910 506.000 1.000
26.920 498.000 1.000
26.930 511.000 1.000
26.940 529.000 1.000
26.950 528.000 1.000
26.960 577.000 1.000
26.970 637.000 1.000
26.980 643.000 1.000
26.990 592.000 1.000
27.000 625.000 1.000
27.010 588.000 1.000
27.020 608.000 1.000
27.030 654.000 1.000
27.040 610.000 1.000
27.050 632.000 1.000
27.060 646.000 1.000
27.070 640.000 1.000
27.080 634.000 1.000
27.090 623.000 1.000
27.100 623.000 1.000
27.110 620.000 1.000
27.120 635.000 1.000
27.130 626.000 1.000
27.140 623.000 1.000
27.150 616.000 1.000
27.160 618.000 1.000
27.170 625.000 1.000
27.180 621.000 1.000
27.190 582.000 1.000
27.200 573.000 1.000
27.210 582.000 1.000
27.220 615.000 1.000
27.230 580.000 1.000
27.240 595.000 1.000
27.250 568.000 1.000
27.260 571.000 1.000
27.270 558.000 1.000
27.280 586.000 1.000
27.290 537.000 1.000
27.300 551.000 1.000
27.310 553.000 1.000
27.320 560.000 1.000
27.330 519.000 1.000
27.340 499.000 1.000
27.350 467.000 1.000
27.360 463.000 1.000
27.370 451.000 1.000
27.380 449.000 1.000
27.390 457.000 1.000
27.400 463.000 1.000
27.410 422.000 1.000
27.420 442.000 1.000
27.430 433.000 1.000
27.440 434.000 1.000
27.450 428.000 1.000
27.460 464.000 1.000
27.470 423.000 1.000
27.480 399.000 1.000
27.490 421.000 1.000
27.500 402.000 1.000
27.510 404.000 1.000
27.520 416.000 1.000
27.530 430.000 1.000
27.540 442.000 1.000
27.550 443.000 1.000
27.560 413.000 1.000
27.570 409.000 1.000
27.580 415.000 1.000
27.590 437.000 1.000
27.600 426.000 1.000
27.610 407.000 1.000
27.620 414.000 1.000
27.630 395.000 1.000
27.640 404.000 1.000
27.650 424.000 1.000
27.660 400.000 1.000
27.670 409.000 1.000
27.680 423.000 1.000
27.690 436.000 1.000
27.700 440.000 1.000
27.710 423.000 1.000
27.720 411.000 1.000
27.730 416.000 1.000
27.740 450.000 1.000
27.750 414.000 1.000
27.760 403.000 1.000
27.770 414.000 1.000
27.780 372.000 1.000
27.790 368.000 1.000
27.800 399.000 1.000
27.810 412.000 1.000
27.820 407.000 1.000
27.830 409.000 1.000
27.840 371.000 1.000
27.850 372.000 1.000
27.860 364.000 1.000
27.870 375.000 1.000
27.880 399.000 1.000
27.890 419.000 1.000
27.900 409.000 1.000
27.910 391.000 1.000
27.920 372.000 1.000
27.930 360.000 1.000
27.940 389.000 1.000
27.950 397.000 1.000
27.960 383.000 1.000
27.970 380.000 1.000
27.980 408.000 1.000
27.990 384.000 1.000
28.000 375.000 1.000
28.010 373.000 1.000
28.020 385.000 1.000
28.030 388.000 1.000
28.040 406.000 1.000
28.050 420.000 1.000
28.060 391.000 1.000
28.070 393.000 1.000
28.080 413.000 1.000
28.090 432.000 1.000
28.100 431.000 1.000
28.110 452.000 1.000
28.120 466.000 1.000
28.130 443.000 1.000
28.140 438.000 1.000
28.150 449.000 1.000
28.160 480.000 1.000
28.170 504.000 1.000
28.180 485.000 1.000
28.190 465.000 1.000
28.200 468.000 1.000
28.210 477.000 1.000
28.220 503.000 1.000
28.230 499.000 1.000
28.240 487.000 1.000
28.250 473.000 1.000
28.260 494.000 1.000
28.270 499.000 1.000
28.280 489.000 1.000
28.290 492.000 1.000
28.300 464.000 1.000
28.310 470.000 1.000
28.320 475.000 1.000
28.330 474.000 1.000
28.340 452.000 1.000
28.350 449.000 1.000
28.360 455.000 1.000
28.370 452.000 1.000
28.380 448.000 1.000
28.390 401.000 1.000
28.400 424.000 1.000
28.410 443.000 1.000
28.420 432.000 1.000
28.430 440.000 1.000
28.440 410.000 1.000
28.450 401.000 1.000
28.460 426.000 1.000
28.470 406.000 1.000
28.480 423.000 1.000
28.490 420.000 1.000
28.500 409.000 1.000
28.510 372.000 1.000
28.520 367.000 1.000
28.530 392.000 1.000
28.540 356.000 1.000
28.550 362.000 1.000
28.560 411.000 1.000
28.570 395.000 1.000
28.580 374.000 1.000
28.590 377.000 1.000
28.600 361.000 1.000
28.610 343.000 1.000
28.620 388.000 1.000
28.630 400.000 1.000
28.640 391.000 1.000
28.650 388.000 1.000
28.660 374.000 1.000
28.670 356.000 1.000
28.680 355.000 1.000
28.690 365.000 1.000
28.700 367.000 1.000
28.710 384.000 1.000
28.720 374.000 1.000
28.730 378.000 1.000
28.740 382.000 1.000
28.750 358.000 1.000
28.760 361.000 1.000
28.770 387.000 1.000
28.780 380.000 1.000
28.790 390.000 1.000
28.800 369.000 1.000
28.810 380.000 1.000
28.820 391.000 1.000
28.830 368.000 1.000
28.840 371.000 1.000
28.850 376.000 1.000
28.860 371.000 1.000
28.870 385.000 1.000
28.880 391.000 1.000
28.890 416.000 1.000
28.900 408.000 1.000
28.910 408.000 1.000
28.920 413.000 1.000
28.930 406.000 1.000
28.940 385.000 1.000
28.950 369.000 1.000
28.960 378.000 1.000
28.970 408.000 1.000
28.980 387.000 1.000
28.990 394.000 1.000
29.000 400.000 1.000
29.010 390.000 1.000
29.020 398.000 1.000
29.030 399.000 1.000
29.040 399.000 1.000
29.050 415.000 1.000
29.060 418.000 1.000
29.070 412.000 1.000
29.080 414.000 1.000
29.090 425.000 1.000
29.100 404.000 1.000
29.110 398.000 1.000
29.120 379.000 1.000
29.130 366.000 1.000
29.140 365.000 1.000
29.150 356.000 1.000
29.160 359.000 1.000
29.170 366.000 1.000
29.180 352.000 1.000
29.190 338.000 1.000
29.200 349.000 1.000
29.210 360.000 1.000
29.220 374.000 1.000
29.230 383.000 1.000
29.240 373.000 1.000
29.250 364.000 1.000
29.260 371.000 1.000
29.270 362.000 1.000
29.280 349.000 1.000
29.290 353.000 1.000
29.300 365.000 1.000
29.310 368.000 1.000
29.320 356.000 1.000
29.330 352.000 1.000
29.340 360.000 1.000
29.350 380.000 1.000
29.360 358.000 1.000
29.370 363.000 1.000
29.380 373.000 1.000
29.390 376.000 1.000
29.400 356.000 1.000
29.410 363.000 1.000
29.420 351.000 1.000
29.430 347.000 1.000
29.440 346.000 1.000
29.450 351.000 1.000
29.460 348.000 1.000
29.470 364.000 1.000
29.480 367.000 1.000
29.490 373.000 1.000
29.500 362.000 1.000
29.510 325.000 1.000
29.520 343.000 1.000
29.530 358.000 1.000
29.540 358.000 1.000
29.550 376.000 1.000
29.560 366.000 1.000
29.570 355.000 1.000
29.580 382.000 1.000
29.590 359.000 1.000
29.600 361.000 1.000
29.610 342.000 1.000
29.620 353.000 1.000
29.630 356.000 1.000
29.640 351.000 1.000
29.650 361.000 1.000
29.660 333.000 1.000
29.670 356.000 1.000
29.680 370.000 1.000
29.690 356.000 1.000
29.700 349.000 1.000
29.710 355.000 1.000
29.720 340.000 1.000
29.730 347.000 1.000
29.740 335.000 1.000
29.750 344.000 1.000
29.760 341.000 1.000
29.770 361.000 1.000
29.780 361.000 1.000
29.790 345.000 1.000
29.800 350.000 1.000
29.810 350.000 1.000
29.820 363.000 1.000
29.830 367.000 1.000
29.840 373.000 1.000
29.850 352.000 1.000
29.860 366.000 1.000
29.870 350.000 1.000
29.880 344.000 1.000
29.890 343.000 1.000
29.900 335.000 1.000
29.910 332.000 1.000
29.920 345.000 1.000
29.930 366.000 1.000
29.940 358.000 1.000
29.950 362.000 1.000
29.960 360.000 1.000
29.970 376.000 1.000
29.980 327.000 1.000
29.990 351.000 1.000
30.000 365.000 1.000
30.010 367.000 1.000
30.020 371.000 1.000
30.030 331.000 1.000
30.040 335.000 1.000
30.050 350.000 1.000
30.060 350.000 1.000
30.070 339.000 1.000
30.080 343.000 1.000
30.090 346.000 1.000
30.100 349.000 1.000
30.110 359.000 1.000
30.120 360.000 1.000
30.130 361.000 1.000
30.140 371.000 1.000
30.150 354.000 1.000
30.160 352.000 1.000
30.170 343.000 1.000
30.180 356.000 1.000
30.190 338.000 1.000
30.200 348.000 1.000
30.210 319.000 1.000
30.220 340.000 1.000
30.230 362.000 1.000
30.240 366.000 1.000
30.250 377.000 1.000
30.260 362.000 1.000
30.270 361.000 1.000
30.280 353.000 1.000
30.290 353.000 1.000
30.300 344.000 1.000
30.310 338.000 1.000
30.320 349.000 1.000
30.330 381.000 1.000
30.340 360.000 1.000
30.350 357.000 1.000
30.360 355.000 1.000
30.370 354.000 1.000
30.380 371.000 1.000
30.390 363.000 1.000
30.400 366.000 1.000
30.410 361.000 1.000
30.420 339.000 1.000
30.430 356.000 1.000
30.440 347.000 1.000
30.450 339.000 1.000
30.460 358.000 1.000
30.470 369.000 1.000
30.480 342.000 1.000
30.490 354.000 1.000
30.500 360.000 1.000
30.510 329.000 1.000
30.520 343.000 1.000
30.530 343.000 1.000
30.540 346.000 1.000
30.550 360.000 1.000
30.560 338.000 1.000
30.570 341.000 1.000
30.580 361.000 1.000
30.590 369.000 1.000
30.600 357.000 1.000
30.610 367.000 1.000
30.620 345.000 1.000
30.630 351.000 1.000
30.640 362.000 1.000
30.650 343.000 1.000
30.660 351.000 1.000
30.670 375.000 1.000
30.680 364.000 1.000
30.690 327.000 1.000
30.700 345.000 1.000
30.710 349.000 1.000
30.720 350.000 1.000
30.730 336.000 1.000
30.740 340.000 1.000
30.750 340.000 1.000
30.760 344.000 1.000
30.770 336.000 1.000
30.780 321.000 1.000
30.790 337.000 1.000
30.800 372.000 1.000
30.810 358.000 1.000
30.820 360.000 1.000
30.830 341.000 1.000
30.840 332.000 1.000
30.850 338.000 1.000
30.860 355.000 1.000
30.870 354.000 1.000
30.880 359.000 1.000
30.890 364.000 1.000
30.900 340.000 1.000
30.910 332.000 1.000
30.920 349.000 1.000
30.930 361.000 1.000
30.940 341.000 1.000
30.950 347.000 1.000
30.960 364.000 1.000
30.970 372.000 1.000
30.980 370.000 1.000
30.990 379.000 1.000
31.000 353.000 1.000
31.010 346.000 1.000
31.020 366.000 1.000
31.030 369.000 1.000
31.040 372.000 1.000
31.050 348.000 1.000
31.060 366.000 1.000
31.070 346.000 1.000
31.080 352.000 1.000
31.090 332.000 1.000
31.100 361.000 1.000
31.110 360.000 1.000
31.120 358.000 1.000
31.130 353.000 1.000
31.140 349.000 1.000
31.150 349.000 1.000
31.160 361.000 1.000
31.170 349.000 1.000
31.180 367.000 1.000
31.190 366.000 1.000
31.200 358.000 1.000
31.210 362.000 1.000
31.220 387.000 1.000
31.230 368.000 1.000
31.240 355.000 1.000
31.250 360.000 1.000
31.260 335.000 1.000
31.270 348.000 1.000
31.280 340.000 1.000
31.290 385.000 1.000
31.300 367.000 1.000
31.310 357.000 1.000
31.320 371.000 1.000
31.330 387.000 1.000
31.340 344.000 1.000
31.350 360.000 1.000
31.360 339.000 1.000
31.370 354.000 1.000
31.380 348.000 1.000
31.390 345.000 1.000
31.400 367.000 1.000
31.410 382.000 1.000
31.420 382.000 1.000
31.430 375.000 1.000
31.440 379.000 1.000
31.450 360.000 1.000
31.460 376.000 1.000
31.470 380.000 1.000
31.480 372.000 1.000
31.490 389.000 1.000
31.500 368.000 1.000
31.510 373.000 1.000
31.520 365.000 1.000
31.530 376.000 1.000
31.540 415.000 1.000
31.550 375.000 1.000
31.560 383.000 1.000
31.570 396.000 1.000
31.580 391.000 1.000
31.590 392.000 1.000
31.600 395.000 1.000
31.610 396.000 1.000
31.620 386.000 1.000
31.630 386.000 1.000
31.640 390.000 1.000
31.650 400.000 1.000
31.660 382.000 1.000
31.670 369.000 1.000
31.680 377.000 1.000
31.690 366.000 1.000
31.700 386.000 1.000
31.710 371.000 1.000
31.720 362.000 1.000
31.730 359.000 1.000
31.740 350.000 1.000
31.750 351.000 1.000
31.760 347.000 1.000
31.770 348.000 1.000
31.780 350.000 1.000
31.790 375.000 1.000
31.800 391.000 1.000
31.810 380.000 1.000
31.820 366.000 1.000
31.830 363.000 1.000
31.840 346.000 1.000
31.850 347.000 1.000
31.860 351.000 1.000
31.870 332.000 1.000
31.880 359.000 1.000
31.890 373.000 1.000
31.900 367.000 1.000
31.910 353.000 1.000
31.920 377.000 1.000
31.930 345.000 1.000
31.940 375.000 1.000
31.950 359.000 1.000
31.960 348.000 1.000
31.970 338.000 1.000
31.980 352.000 1.000
31.990 347.000 1.000
32.000 364.000 1.000
32.010 365.000 1.000
32.020 367.000 1.000
32.030 352.000 1.000
32.040 358.000 1.000
32.050 383.000 1.000
32.060 391.000 1.000
32.070 361.000 1.000
32.080 356.000 1.000
32.090 363.000 1.000
32.100 365.000 1.000
32.110 417.000 1.000
32.120 434.000 1.000
32.130 396.000 1.000
32.140 429.000 1.000
32.150 422.000 1.000
32.160 446.000 1.000
32.170 436.000 1.000
32.180 429.000 1.000
32.190 468.000 1.000
32.200 472.000 1.000
32.210 470.000 1.000
32.220 491.000 1.000
32.230 482.000 1.000
32.240 474.000 1.000
32.250 476.000 1.000
32.260 483.000 1.000
32.270 479.000 1.000
32.280 510.000 1.000
32.290 481.000 1.000
32.300 462.000 1.000
32.310 467.000 1.000
32.320 447.000 1.000
32.330 429.000 1.000
32.340 447.000 1.000
32.350 433.000 1.000
32.360 443.000 1.000
32.370 442.000 1.000
32.380 407.000 1.000
32.390 419.000 1.000
32.400 401.000 1.000
32.410 416.000 1.000
32.420 431.000 1.000
32.430 420.000 1.000
32.440 395.000 1.000
32.450 382.000 1.000
32.460 376.000 1.000
32.470 386.000 1.000
32.480 404.000 1.000
32.490 396.000 1.000
32.500 387.000 1.000
32.510 413.000 1.000
32.520 393.000 1.000
32.530 404.000 1.000
32.540 409.000 1.000
32.550 420.000 1.000
32.560 440.000 1.000
32.570 445.000 1.000
32.580 417.000 1.000
32.590 475.000 1.000
32.600 454.000 1.000
32.610 436.000 1.000
32.620 499.000 1.000
32.630 537.000 1.000
32.640 548.000 1.000
32.650 570.000 1.000
32.660 621.000 1.000
32.670 733.000 1.000
32.680 865.000 1.000
32.690 942.000 1.000
32.700 986.000 1.000
32.710 988.000 1.000
32.720 992.000 1.000
32.730 980.000 1.000
32.740 975.000 1.000
32.750 1004.000 1.000
32.760 1043.000 1.000
32.770 1164.000 1.000
32.780 1200.000 1.000
32.790 1191.000 1.000
32.800 1167.000 1.000
32.810 1160.000 1.000
32.820 1085.000 1.000
32.830 1065.000 1.000
32.840 1044.000 1.000
32.850 1027.000 1.000
32.860 1010.000 1.000
32.870 994.000 1.000
32.880 980.000 1.000
32.890 960.000 1.000
32.900 960.000 1.000
32.910 945.000 1.000
32.920 906.000 1.000
32.930 888.000 1.000
32.940 860.000 1.000
32.950 878.000 1.000
32.960 810.000 1.000
32.970 796.000 1.000
32.980 788.000 1.000
32.990 763.000 1.000
33.000 760.000 1.000
33.010 781.000 1.000
33.020 773.000 1.000
33.030 748.000 1.000
33.040 767.000 1.000
33.050 778.000 1.000
33.060 724.000 1.000
33.070 727.000 1.000
33.080 737.000 1.000
33.090 751.000 1.000
33.100 785.000 1.000
33.110 804.000 1.000
33.120 794.000 1.000
33.130 758.000 1.000
33.140 805.000 1.000
33.150 784.000 1.000
33.160 785.000 1.000
33.170 751.000 1.000
33.180 718.000 1.000
33.190 753.000 1.000
33.200 759.000 1.000
33.210 736.000 1.000
33.220 732.000 1.000
33.230 756.000 1.000
33.240 739.000 1.000
33.250 682.000 1.000
33.260 631.000 1.000
33.270 610.000 1.000
33.280 592.000 1.000
33.290 562.000 1.000
33.300 564.000 1.000
33.310 546.000 1.000
33.320 523.000 1.000
33.330 458.000 1.000
33.340 446.000 1.000
33.350 456.000 1.000
33.360 442.000 1.000
33.370 461.000 1.000
33.380 440.000 1.000
33.390 446.000 1.000
33.400 399.000 1.000
33.410 397.000 1.000
33.420 404.000 1.000
33.430 398.000 1.000
33.440 409.000 1.000
33.450 395.000 1.000
33.460 393.000 1.000
33.470 394.000 1.000
33.480 369.000 1.000
33.490 363.000 1.000
33.500 392.000 1.000
33.510 387.000 1.000
33.520 378.000 1.000
33.530 379.000 1.000
33.540 396.000 1.000
33.550 424.000 1.000
33.560 420.000 1.000
33.570 364.000 1.000
33.580 373.000 1.000
33.590 371.000 1.000
33.600 373.000 1.000
33.610 391.000 1.000
33.620 397.000 1.000
33.630 416.000 1.000
33.640 372.000 1.000
33.650 383.000 1.000
33.660 402.000 1.000
33.670 399.000 1.000
33.680 386.000 1.000
33.690 400.000 1.000
33.700 400.000 1.000
33.710 381.000 1.000
33.720 413.000 1.000
33.730 405.000 1.000
33.740 393.000 1.000
33.750 390.000 1.000
33.760 377.000 1.000
33.770 375.000 1.000
33.780 397.000 1.000
33.790 406.000 1.000
33.800 408.000 1.000
33.810 367.000 1.000
33.820 405.000 1.000
33.830 426.000 1.000
33.840 401.000 1.000
33.850 402.000 1.000
33.860 405.000 1.000
33.870 384.000 1.000
33.880 380.000 1.000
33.890 410.000 1.000
33.900 402.000 1.000
33.910 393.000 1.000
33.920 402.000 1.000
33.930 397.000 1.000
33.940 396.000 1.000
33.950 400.000 1.000
33.960 416.000 1.000
33.970 429.000 1.000
33.980 447.000 1.000
33.990 440.000 1.000
34.000 417.000 1.000
34.010 426.000 1.000
34.020 449.000 1.000
34.030 462.000 1.000
34.040 481.000 1.000
34.050 517.000 1.000
34.060 506.000 1.000
34.070 531.000 1.000
34.080 512.000 1.000
34.090 488.000 1.000
34.100 500.000 1.000
34.110 533.000 1.000
34.120 516.000 1.000
34.130 523.000 1.000
34.140 517.000 1.000
34.150 494.000 1.000
34.160 504.000 1.000
34.170 467.000 1.000
34.180 474.000 1.000
34.190 497.000 1.000
34.200 492.000 1.000
34.210 460.000 1.000
34.220 422.000 1.000
34.230 454.000 1.000
34.240 433.000 1.000
34.250 443.000 1.000
34.260 458.000 1.000
34.270 445.000 1.000
34.280 418.000 1.000
34.290 405.000 1.000
34.300 415.000 1.000
34.310 422.000 1.000
34.320 419.000 1.000
34.330 389.000 1.000
34.340 370.000 1.000
34.350 406.000 1.000
34.360 404.000 1.000
34.370 374.000 1.000
34.380 392.000 1.000
34.390 400.000 1.000
34.400 405.000 1.000
34.410 394.000 1.000
34.420 373.000 1.000
34.430 384.000 1.000
34.440 392.000 1.000
34.450 379.000 1.000
34.460 375.000 1.000
34.470 367.000 1.000
34.480 359.000 1.000
34.490 384.000 1.000
34.500 381.000 1.000
34.510 384.000 1.000
34.520 420.000 1.000
34.530 394.000 1.000
34.540 397.000 1.000
34.550 365.000 1.000
34.560 365.000 1.000
34.570 402.000 1.000
34.580 382.000 1.000
34.590 378.000 1.000
34.600 393.000 1.000
34.610 388.000 1.000
34.620 402.000 1.000
34.630 416.000 1.000
34.640 387.000 1.000
34.650 396.000 1.000
34.660 400.000 1.000
34.670 377.000 1.000
34.680 358.000 1.000
34.690 365.000 1.000
34.700 377.000 1.000
34.710 385.000 1.000
34.720 375.000 1.000
34.730 377.000 1.000
34.740 411.000 1.000
34.750 390.000 1.000
34.760 389.000 1.000
34.770 404.000 1.000
34.780 408.000 1.000
34.790 395.000 1.000
34.800 387.000 1.000
34.810 411.000 1.000
34.820 411.000 1.000
34.830 399.000 1.000
34.840 406.000 1.000
34.850 390.000 1.000
34.860 372.000 1.000
34.870 405.000 1.000
34.880 401.000 1.000
34.890 401.000 1.000
34.900 402.000 1.000
34.910 385.000 1.000
34.920 409.000 1.000
34.930 427.000 1.000
34.940 405.000 1.000
34.950 392.000 1.000
34.960 416.000 1.000
34.970 422.000 1.000
34.980 408.000 1.000
34.990 402.000 1.000
35.000 391.000 1.000
35.010 416.000 1.000
35.020 431.000 1.000
35.030 418.000 1.000
35.040 413.000 1.000
35.050 421.000 1.000
35.060 418.000 1.000
35.070 425.000 1.000
35.080 415.000 1.000
35.090 426.000 1.000
35.100 419.000 1.000
35.110 428.000 1.000
35.120 436.000 1.000
35.130 448.000 1.000
35.140 449.000 1.000
35.150 441.000 1.000
35.160 430.000 1.000
35.170 423.000 1.000
35.180 435.000 1.000
35.190 421.000 1.000
35.200 415.000 1.000
35.210 413.000 1.000
35.220 383.000 1.000
35.230 382.000 1.000
35.240 406.000 1.000
35.250 395.000 1.000
35.260 378.000 1.000
35.270 360.000 1.000
35.280 379.000 1.000
35.290 369.000 1.000
35.300 387.000 1.000
35.310 401.000 1.000
35.320 364.000 1.000
35.330 323.000 1.000
35.340 354.000 1.000
35.350 382.000 1.000
35.360 391.000 1.000
35.370 364.000 1.000
35.380 362.000 1.000
35.390 350.000 1.000
35.400 360.000 1.000
35.410 370.000 1.000
35.420 364.000 1.000
35.430 357.000 1.000
35.440 365.000 1.000
35.450 383.000 1.000
35.460 380.000 1.000
35.470 364.000 1.000
35.480 361.000 1.000
35.490 367.000 1.000
35.500 377.000 1.000
35.510 364.000 1.000
35.520 371.000 1.000
35.530 373.000 1.000
35.540 341.000 1.000
35.550 334.000 1.000
35.560 341.000 1.000
35.570 356.000 1.000
35.580 356.000 1.000
35.590 363.000 1.000
35.600 348.000 1.000
35.610 329.000 1.000
35.620 319.000 1.000
35.630 324.000 1.000
35.640 342.000 1.000
35.650 351.000 1.000
35.660 346.000 1.000
35.670 368.000 1.000
35.680 354.000 1.000
35.690 342.000 1.000
35.700 358.000 1.000
35.710 329.000 1.000
35.720 342.000 1.000
35.730 364.000 1.000
35.740 374.000 1.000
35.750 367.000 1.000
35.760 370.000 1.000
35.770 360.000 1.000
35.780 358.000 1.000
35.790 352.000 1.000
35.800 353.000 1.000
35.810 320.000 1.000
35.820 337.000 1.000
35.830 344.000 1.000
35.840 352.000 1.000
35.850 344.000 1.000
35.860 352.000 1.000
35.870 355.000 1.000
35.880 344.000 1.000
35.890 372.000 1.000
35.900 384.000 1.000
35.910 355.000 1.000
35.920 332.000 1.000
35.930 342.000 1.000
35.940 318.000 1.000
35.950 328.000 1.000
35.960 332.000 1.000
35.970 362.000 1.000
35.980 372.000 1.000
35.990 354.000 1.000
36.000 362.000 1.000
36.010 358.000 1.000
36.020 365.000 1.000
36.030 369.000 1.000
36.040 383.000 1.000
36.050 379.000 1.000
36.060 377.000 1.000
36.070 380.000 1.000
36.080 386.000 1.000
36.090 380.000 1.000
36.100 350.000 1.000
36.110 332.000 1.000
36.120 357.000 1.000
36.130 355.000 1.000
36.140 396.000 1.000
36.150 419.000 1.000
36.160 406.000 1.000
36.170 377.000 1.000
36.180 402.000 1.000
36.190 391.000 1.000
36.200 380.000 1.000
36.210 382.000 1.000
36.220 372.000 1.000
36.230 361.000 1.000
36.240 371.000 1.000
36.250 391.000 1.000
36.260 364.000 1.000
36.270 356.000 1.000
36.280 378.000 1.000
36.290 358.000 1.000
36.300 358.000 1.000
36.310 360.000 1.000
36.320 363.000 1.000
36.330 354.000 1.000
36.340 381.000 1.000
36.350 375.000 1.000
36.360 366.000 1.000
36.370 374.000 1.000
36.380 366.000 1.000
36.390 352.000 1.000
36.400 345.000 1.000
36.410 341.000 1.000
36.420 353.000 1.000
36.430 379.000 1.000
36.440 380.000 1.000
36.450 367.000 1.000
36.460 367.000 1.000
36.470 392.000 1.000
36.480 362.000 1.000
36.490 352.000 1.000
36.500 375.000 1.000
36.510 367.000 1.000
36.520 334.000 1.000
36.530 338.000 1.000
36.540 367.000 1.000
36.550 376.000 1.000
36.560 377.000 1.000
36.570 360.000 1.000
36.580 382.000 1.000
36.590 378.000 1.000
36.600 369.000 1.000
36.610 374.000 1.000
36.620 379.000 1.000
36.630 386.000 1.000
36.640 390.000 1.000
36.650 377.000 1.000
36.660 379.000 1.000
36.670 358.000 1.000
36.680 346.000 1.000
36.690 393.000 1.000
36.700 381.000 1.000
36.710 349.000 1.000
36.720 374.000 1.000
36.730 367.000 1.000
36.740 349.000 1.000
36.750 357.000 1.000
36.760 358.000 1.000
36.770 358.000 1.000
36.780 381.000 1.000
36.790 381.000 1.000
36.800 376.000 1.000
36.810 371.000 1.000
36.820 375.000 1.000
36.830 363.000 1.000
36.840 392.000 1.000
36.850 397.000 1.000
36.860 358.000 1.000
36.870 368.000 1.000
36.880 364.000 1.000
36.890 346.000 1.000
36.900 345.000 1.000
36.910 350.000 1.000
36.920 357.000 1.000
36.930 366.000 1.000
36.940 387.000 1.000
36.950 375.000 1.000
36.960 362.000 1.000
36.970 381.000 1.000
36.980 381.000 1.000
36.990 366.000 1.000
37.000 372.000 1.000
37.010 382.000 1.000
37.020 363.000 1.000
37.030 370.000 1.000
37.040 350.000 1.000
37.050 365.000 1.000
37.060 376.000 1.000
37.070 371.000 1.000
37.080 352.000 1.000
37.090 364.000 1.000
37.100 401.000 1.000
37.110 384.000 1.000
37.120 365.000 1.000
37.130 362.000 1.000
37.140 360.000 1.000
37.150 358.000 1.000
37.160 353.000 1.000
37.170 346.000 1.000
37.180 371.000 1.000
37.190 357.000 1.000
37.200 352.000 1.000
37.210 383.000 1.000
37.220 345.000 1.000
37.230 354.000 1.000
37.240 351.000 1.000
37.250 328.000 1.000
37.260 334.000 1.000
37.270 359.000 1.000
37.280 359.000 1.000
37.290 358.000 1.000
37.300 365.000 1.000
37.310 358.000 1.000
37.320 351.000 1.000
37.330 377.000 1.000
37.340 364.000 1.000
37.350 353.000 1.000
37.360 365.000 1.000
37.370 358.000 1.000
37.380 390.000 1.000
37.390 390.000 1.000
37.400 378.000 1.000
37.410 413.000 1.000
37.420 405.000 1.000
37.430 356.000 1.000
37.440 370.000 1.000
37.450 378.000 1.000
37.460 416.000 1.000
37.470 408.000 1.000
37.480 385.000 1.000
37.490 411.000 1.000
37.500 402.000 1.000
37.510 410.000 1.000
37.520 443.000 1.000
37.530 421.000 1.000
37.540 426.000 1.000
37.550 447.000 1.000
37.560 447.000 1.000
37.570 432.000 1.000
37.580 407.000 1.000
37.590 416.000 1.000
37.600 429.000 1.000
37.610 435.000 1.000
37.620 431.000 1.000
37.630 426.000 1.000
37.640 427.000 1.000
37.650 397.000 1.000
37.660 403.000 1.000
37.670 436.000 1.000
37.680 419.000 1.000
37.690 418.000 1.000
37.700 442.000 1.000
37.710 418.000 1.000
37.720 402.000 1.000
37.730 400.000 1.000
37.740 404.000 1.000
37.750 411.000 1.000
37.760 424.000 1.000
37.770 399.000 1.000
37.780 404.000 1.000
37.790 374.000 1.000
37.800 401.000 1.000
37.810 398.000 1.000
37.820 360.000 1.000
37.830 372.000 1.000
37.840 394.000 1.000
37.850 404.000 1.000
37.860 405.000 1.000
37.870 412.000 1.000
37.880 418.000 1.000
37.890 409.000 1.000
37.900 398.000 1.000
37.910 411.000 1.000
37.920 406.000 1.000
37.930 407.000 1.000
37.940 416.000 1.000
37.950 395.000 1.000
37.960 387.000 1.000
37.970 388.000 1.000
37.980 397.000 1.000
37.990 389.000 1.000
38.000 365.000 1.000
38.010 354.000 1.000
38.020 373.000 1.000
38.030 398.000 1.000
38.040 360.000 1.000
38.050 353.000 1.000
38.060 356.000 1.000
38.070 354.000 1.000
38.080 357.000 1.000
38.090 361.000 1.000
38.100 380.000 1.000
38.110 365.000 1.000
38.120 338.000 1.000
38.130 362.000 1.000
38.140 378.000 1.000
38.150 348.000 1.000
38.160 338.000 1.000
38.170 336.000 1.000
38.180 344.000 1.000
38.190 345.000 1.000
38.200 356.000 1.000
38.210 329.000 1.000
38.220 330.000 1.000
38.230 346.000 1.000
38.240 341.000 1.000
38.250 340.000 1.000
38.260 327.000 1.000
38.270 332.000 1.000
38.280 335.000 1.000
38.290 359.000 1.000
38.300 366.000 1.000
38.310 374.000 1.000
38.320 364.000 1.000
38.330 328.000 1.000
38.340 342.000 1.000
38.350 354.000 1.000
38.360 346.000 1.000
38.370 332.000 1.000
38.380 337.000 1.000
38.390 325.000 1.000
38.400 327.000 1.000
38.410 322.000 1.000
38.420 337.000 1.000
38.430 349.000 1.000
38.440 362.000 1.000
38.450 342.000 1.000
38.460 349.000 1.000
38.470 354.000 1.000
38.480 371.000 1.000
38.490 339.000 1.000
38.500 324.000 1.000
38.510 337.000 1.000
38.520 350.000 1.000
38.530 347.000 1.000
38.540 338.000 1.000
38.550 324.000 1.000
38.560 349.000 1.000
38.570 345.000 1.000
38.580 347.000 1.000
38.590 327.000 1.000
38.600 340.000 1.000
38.610 355.000 1.000
38.620 353.000 1.000
38.630 364.000 1.000
38.640 336.000 1.000
38.650 367.000 1.000
38.660 362.000 1.000
38.670 353.000 1.000
38.680 350.000 1.000
38.690 333.000 1.000
38.700 345.000 1.000
38.710 350.000 1.000
38.720 354.000 1.000
38.730 343.000 1.000
38.740 326.000 1.000
38.750 347.000 1.000
38.760 367.000 1.000
38.770 350.000 1.000
38.780 340.000 1.000
38.790 328.000 1.000
38.800 337.000 1.000
38.810 360.000 1.000
38.820 362.000 1.000
38.830 351.000 1.000
38.840 329.000 1.000
38.850 332.000 1.000
38.860 367.000 1.000
38.870 356.000 1.000
38.880 335.000 1.000
38.890 309.000 1.000
38.900 321.000 1.000
38.910 352.000 1.000
38.920 352.000 1.000
38.930 349.000 1.000
38.940 316.000 1.000
38.950 330.000 1.000
38.960 336.000 1.000
38.970 352.000 1.000
38.980 348.000 1.000
38.990 355.000 1.000
39.000 333.000 1.000
39.010 339.000 1.000
39.020 365.000 1.000
39.030 363.000 1.000
39.040 358.000 1.000
39.050 321.000 1.000
39.060 376.000 1.000
39.070 375.000 1.000
39.080 360.000 1.000
39.090 349.000 1.000
39.100 373.000 1.000
39.110 361.000 1.000
39.120 376.000 1.000
39.130 369.000 1.000
39.140 374.000 1.000
39.150 361.000 1.000
39.160 370.000 1.000
39.170 379.000 1.000
39.180 358.000 1.000
39.190 368.000 1.000
39.200 376.000 1.000
39.210 374.000 1.000
39.220 367.000 1.000
39.230 361.000 1.000
39.240 361.000 1.000
39.250 369.000 1.000
39.260 367.000 1.000
39.270 362.000 1.000
39.280 377.000 1.000
39.290 377.000 1.000
39.300 377.000 1.000
39.310 354.000 1.000
39.320 372.000 1.000
39.330 361.000 1.000
39.340 346.000 1.000
39.350 332.000 1.000
39.360 329.000 1.000
39.370 330.000 1.000
39.380 350.000 1.000
39.390 367.000 1.000
39.400 341.000 1.000
39.410 370.000 1.000
39.420 374.000 1.000
39.430 366.000 1.000
39.440 362.000 1.000
39.450 369.000 1.000
39.460 356.000 1.000
39.470 350.000 1.000
39.480 357.000 1.000
39.490 336.000 1.000
39.500 342.000 1.000
39.510 348.000 1.000
39.520 345.000 1.000
39.530 350.000 1.000
39.540 327.000 1.000
39.550 345.000 1.000
39.560 365.000 1.000
39.570 365.000 1.000
39.580 363.000 1.000
39.590 360.000 1.000
39.600 340.000 1.000
39.610 328.000 1.000
39.620 356.000 1.000
39.630 367.000 1.000
39.640 353.000 1.000
39.650 344.000 1.000
39.660 348.000 1.000
39.670 359.000 1.000
39.680 352.000 1.000
39.690 368.000 1.000
39.700 365.000 1.000
39.710 341.000 1.000
39.720 351.000 1.000
39.730 347.000 1.000
39.740 342.000 1.000
39.750 352.000 1.000
39.760 363.000 1.000
39.770 372.000 1.000
39.780 338.000 1.000
39.790 343.000 1.000
39.800 338.000 1.000
39.810 329.000 1.000
39.820 334.000 1.000
39.830 354.000 1.000
39.840 371.000 1.000
39.850 370.000 1.000
39.860 340.000 1.000
39.870 333.000 1.000
39.880 347.000 1.000
39.890 356.000 1.000
39.900 374.000 1.000
39.910 369.000 1.000
39.920 353.000 1.000
39.930 354.000 1.000
39.940 348.000 1.000
39.950 353.000 1.000
39.960 348.000 1.000
39.970 359.000 1.000
39.980 367.000 1.000
39.990 356.000 1.000
40.000 358.000 1.000
40.010 346.000 1.000
40.020 363.000 1.000
40.030 381.000 1.000
40.040 388.000 1.000
40.050 368.000 1.000
40.060 377.000 1.000
40.070 402.000 1.000
40.080 378.000 1.000
40.090 366.000 1.000
40.100 383.000 1.000
40.110 403.000 1.000
40.120 395.000 1.000
40.130 389.000 1.000
40.140 383.000 1.000
40.150 394.000 1.000
40.160 436.000 1.000
40.170 421.000 1.000
40.180 410.000 1.000
40.190 399.000 1.000
40.200 394.000 1.000
40.210 427.000 1.000
40.220 418.000 1.000
40.230 404.000 1.000
40.240 411.000 1.000
40.250 396.000 1.000
40.260 421.000 1.000
40.270 426.000 1.000
40.280 384.000 1.000
40.290 386.000 1.000
40.300 416.000 1.000
40.310 414.000 1.000
40.320 396.000 1.000
40.330 413.000 1.000
40.340 413.000 1.000
40.350 389.000 1.000
40.360 407.000 1.000
40.370 370.000 1.000
40.380 371.000 1.000
40.390 391.000 1.000
40.400 406.000 1.000
40.410 392.000 1.000
40.420 384.000 1.000
40.430 403.000 1.000
40.440 401.000 1.000
40.450 412.000 1.000
40.460 439.000 1.000
40.470 429.000 1.000
40.480 448.000 1.000
40.490 460.000 1.000
40.500 459.000 1.000
40.510 444.000 1.000
40.520 464.000 1.000
40.530 495.000 1.000
40.540 493.000 1.000
40.550 480.000 1.000
40.560 506.000 1.000
40.570 538.000 1.000
40.580 511.000 1.000
40.590 493.000 1.000
40.600 492.000 1.000
40.610 524.000 1.000
40.620 505.000 1.000
40.630 550.000 1.000
40.640 561.000 1.000
40.650 539.000 1.000
40.660 510.000 1.000
40.670 518.000 1.000
40.680 506.000 1.000
40.690 517.000 1.000
40.700 495.000 1.000
40.710 489.000 1.000
40.720 480.000 1.000
40.730 473.000 1.000
40.740 493.000 1.000
40.750 482.000 1.000
40.760 457.000 1.000
40.770 446.000 1.000
40.780 446.000 1.000
40.790 446.000 1.000
40.800 410.000 1.000
40.810 420.000 1.000
40.820 428.000 1.000
40.830 425.000 1.000
40.840 417.000 1.000
40.850 420.000 1.000
40.860 395.000 1.000
40.870 419.000 1.000
40.880 397.000 1.000
40.890 406.000 1.000
40.900 434.000 1.000
40.910 425.000 1.000
40.920 392.000 1.000
40.930 392.000 1.000
40.940 428.000 1.000
40.950 417.000 1.000
40.960 415.000 1.000
40.970 409.000 1.000
40.980 404.000 1.000
40.990 408.000 1.000
41.000 393.000 1.000
41.010 387.000 1.000
41.020 407.000 1.000
41.030 387.000 1.000
41.040 395.000 1.000
41.050 413.000 1.000
41.060 420.000 1.000
41.070 395.000 1.000
41.080 380.000 1.000
41.090 397.000 1.000
41.100 404.000 1.000
41.110 380.000 1.000
41.120 387.000 1.000
41.130 408.000 1.000
41.140 411.000 1.000
41.150 416.000 1.000
41.160 415.000 1.000
41.170 396.000 1.000
41.180 403.000 1.000
41.190 401.000 1.000
41.200 403.000 1.000
41.210 419.000 1.000
41.220 404.000 1.000
41.230 399.000 1.000
41.240 401.000 1.000
41.250 423.000 1.000
41.260 417.000 1.000
41.270 408.000 1.000
41.280 412.000 1.000
41.290 427.000 1.000
41.300 419.000 1.000
41.310 428.000 1.000
41.320 446.000 1.000
41.330 456.000 1.000
41.340 455.000 1.000
41.350 472.000 1.000
41.360 478.000 1.000
41.370 464.000 1.000
41.380 466.000 1.000
41.390 478.000 1.000
41.400 477.000 1.000
41.410 480.000 1.000
41.420 518.000 1.000
41.430 505.000 1.000
41.440 491.000 1.000
41.450 512.000 1.000
41.460 490.000 1.000
41.470 483.000 1.000
41.480 474.000 1.000
41.490 484.000 1.000
41.500 488.000 1.000
41.510 458.000 1.000
41.520 459.000 1.000
41.530 464.000 1.000
41.540 464.000 1.000
41.550 460.000 1.000
41.560 428.000 1.000
41.570 440.000 1.000
41.580 444.000 1.000
41.590 407.000 1.000
41.600 403.000 1.000
41.610 405.000 1.000
41.620 386.000 1.000
41.630 400.000 1.000
41.640 403.000 1.000
41.650 370.000 1.000
41.660 374.000 1.000
41.670 371.000 1.000
41.680 383.000 1.000
41.690 374.000 1.000
41.700 399.000 1.000
41.710 382.000 1.000
41.720 393.000 1.000
41.730 398.000 1.000
41.740 379.000 1.000
41.750 365.000 1.000
41.760 367.000 1.000
41.770 386.000 1.000
41.780 366.000 1.000
41.790 395.000 1.000
41.800 399.000 1.000
41.810 403.000 1.000
41.820 388.000 1.000
41.830 367.000 1.000
41.840 362.000 1.000
41.850 381.000 1.000
41.860 376.000 1.000
41.870 405.000 1.000
41.880 410.000 1.000
41.890 400.000 1.000
41.900 398.000 1.000
41.910 368.000 1.000
41.920 412.000 1.000
41.930 388.000 1.000
41.940 415.000 1.000
41.950 409.000 1.000
41.960 399.000 1.000
41.970 424.000 1.000
41.980 428.000 1.000
41.990 425.000 1.000
42.000 466.000 1.000
42.010 481.000 1.000
42.020 485.000 1.000
42.030 483.000 1.000
42.040 459.000 1.000
42.050 487.000 1.000
42.060 494.000 1.000
42.070 477.000 1.000
42.080 490.000 1.000
42.090 526.000 1.000
42.100 532.000 1.000
42.110 563.000 1.000
42.120 548.000 1.000
42.130 542.000 1.000
42.140 584.000 1.000
42.150 598.000 1.000
42.160 604.000 1.000
42.170 566.000 1.000
42.180 574.000 1.000
42.190 575.000 1.000
42.200 565.000 1.000
42.210 544.000 1.000
42.220 515.000 1.000
42.230 510.000 1.000
42.240 515.000 1.000
42.250 504.000 1.000
42.260 487.000 1.000
42.270 489.000 1.000
42.280 485.000 1.000
42.290 457.000 1.000
42.300 454.000 1.000
42.310 453.000 1.000
42.320 429.000 1.000
42.330 420.000 1.000
42.340 447.000 1.000
42.350 420.000 1.000
42.360 411.000 1.000
42.370 425.000 1.000
42.380 401.000 1.000
42.390 403.000 1.000
42.400 402.000 1.000
42.410 410.000 1.000
42.420 425.000 1.000
42.430 410.000 1.000
42.440 389.000 1.000
42.450 389.000 1.000
42.460 403.000 1.000
42.470 383.000 1.000
42.480 377.000 1.000
42.490 409.000 1.000
42.500 409.000 1.000
42.510 410.000 1.000
42.520 398.000 1.000
42.530 392.000 1.000
42.540 402.000 1.000
42.550 426.000 1.000
42.560 407.000 1.000
42.570 390.000 1.000
42.580 390.000 1.000
42.590 386.000 1.000
42.600 397.000 1.000
42.610 385.000 1.000
42.620 376.000 1.000
42.630 423.000 1.000
42.640 416.000 1.000
42.650 403.000 1.000
42.660 408.000 1.000
42.670 392.000 1.000
42.680 401.000 1.000
42.690 389.000 1.000
42.700 414.000 1.000
42.710 401.000 1.000
42.720 424.000 1.000
42.730 404.000 1.000
42.740 420.000 1.000
42.750 415.000 1.000
42.760 408.000 1.000
42.770 405.000 1.000
42.780 409.000 1.000
42.790 403.000 1.000
42.800 392.000 1.000
42.810 412.000 1.000
42.820 428.000 1.000
42.830 428.000 1.000
42.840 413.000 1.000
42.850 430.000 1.000
42.860 436.000 1.000
42.870 420.000 1.000
42.880 447.000 1.000
42.890 453.000 1.000
42.900 437.000 1.000
42.910 425.000 1.000
42.920 442.000 1.000
42.930 479.000 1.000
42.940 459.000 1.000
42.950 477.000 1.000
42.960 475.000 1.000
42.970 460.000 1.000
42.980 478.000 1.000
42.990 480.000 1.000
43.000 481.000 1.000
43.010 479.000 1.000
43.020 462.000 1.000
43.030 454.000 1.000
43.040 445.000 1.000
43.050 425.000 1.000
43.060 425.000 1.000
43.070 433.000 1.000
43.080 452.000 1.000
43.090 451.000 1.000
43.100 441.000 1.000
43.110 410.000 1.000
43.120 416.000 1.000
43.130 433.000 1.000
43.140 443.000 1.000
43.150 419.000 1.000
43.160 404.000 1.000
43.170 421.000 1.000
43.180 410.000 1.000
43.190 405.000 1.000
43.200 383.000 1.000
43.210 403.000 1.000
43.220 415.000 1.000
43.230 432.000 1.000
43.240 414.000 1.000
43.250 425.000 1.000
43.260 412.000 1.000
43.270 383.000 1.000
43.280 373.000 1.000
43.290 393.000 1.000
43.300 389.000 1.000
43.310 383.000 1.000
43.320 394.000 1.000
43.330 411.000 1.000
43.340 383.000 1.000
43.350 384.000 1.000
43.360 421.000 1.000
43.370 396.000 1.000
43.380 385.000 1.000
43.390 376.000 1.000
43.400 374.000 1.000
43.410 397.000 1.000
43.420 408.000 1.000
43.430 409.000 1.000
43.440 387.000 1.000
43.450 384.000 1.000
43.460 405.000 1.000
43.470 433.000 1.000
43.480 442.000 1.000
43.490 398.000 1.000
43.500 383.000 1.000
43.510 408.000 1.000
43.520 414.000 1.000
43.530 394.000 1.000
43.540 406.000 1.000
43.550 385.000 1.000
43.560 388.000 1.000
43.570 406.000 1.000
43.580 410.000 1.000
43.590 343.000 1.000
43.600 372.000 1.000
43.610 401.000 1.000
43.620 417.000 1.000
43.630 418.000 1.000
43.640 433.000 1.000
43.650 412.000 1.000
43.660 389.000 1.000
43.670 396.000 1.000
43.680 401.000 1.000
43.690 424.000 1.000
43.700 412.000 1.000
43.710 420.000 1.000
43.720 427.000 1.000
43.730 424.000 1.000
43.740 412.000 1.000
43.750 395.000 1.000
43.760 414.000 1.000
43.770 438.000 1.000
43.780 433.000 1.000
43.790 452.000 1.000
43.800 440.000 1.000
43.810 456.000 1.000
43.820 451.000 1.000
43.830 451.000 1.000
43.840 462.000 1.000
43.850 465.000 1.000
43.860 494.000 1.000
43.870 513.000 1.000
43.880 503.000 1.000
43.890 516.000 1.000
43.900 519.000 1.000
43.910 474.000 1.000
43.920 467.000 1.000
43.930 496.000 1.000
43.940 490.000 1.000
43.950 491.000 1.000
43.960 491.000 1.000
43.970 484.000 1.000
43.980 481.000 1.000
43.990 500.000 1.000
44.000 482.000 1.000
44.010 473.000 1.000
44.020 497.000 1.000
44.030 509.000 1.000
44.040 511.000 1.000
44.050 518.000 1.000
44.060 530.000 1.000
44.070 554.000 1.000
44.080 568.000 1.000
44.090 579.000 1.000
44.100 604.000 1.000
44.110 689.000 1.000
44.120 705.000 1.000
44.130 699.000 1.000
44.140 720.000 1.000
44.150 723.000 1.000
44.160 721.000 1.000
44.170 728.000 1.000
44.180 721.000 1.000
44.190 687.000 1.000
44.200 713.000 1.000
44.210 728.000 1.000
44.220 752.000 1.000
44.230 745.000 1.000
44.240 766.000 1.000
44.250 719.000 1.000
44.260 753.000 1.000
44.270 785.000 1.000
44.280 751.000 1.000
44.290 743.000 1.000
44.300 740.000 1.000
44.310 750.000 1.000
44.320 734.000 1.000
44.330 710.000 1.000
44.340 707.000 1.000
44.350 723.000 1.000
44.360 699.000 1.000
44.370 657.000 1.000
44.380 661.000 1.000
44.390 634.000 1.000
44.400 654.000 1.000
44.410 676.000 1.000
44.420 649.000 1.000
44.430 611.000 1.000
44.440 656.000 1.000
44.450 626.000 1.000
44.460 647.000 1.000
44.470 618.000 1.000
44.480 594.000 1.000
44.490 605.000 1.000
44.500 609.000 1.000
44.510 576.000 1.000
44.520 557.000 1.000
44.530 573.000 1.000
44.540 569.000 1.000
44.550 556.000 1.000
44.560 586.000 1.000
44.570 572.000 1.000
44.580 576.000 1.000
44.590 579.000 1.000
44.600 556.000 1.000
44.610 560.000 1.000
44.620 581.000 1.000
44.630 561.000 1.000
44.640 546.000 1.000
44.650 554.000 1.000
44.660 593.000 1.000
44.670 567.000 1.000
44.680 561.000 1.000
44.690 599.000 1.000
44.700 588.000 1.000
44.710 559.000 1.000
44.720 566.000 1.000
44.730 586.000 1.000
44.740 600.000 1.000
44.750 597.000 1.000
44.760 595.000 1.000
44.770 590.000 1.000
44.780 591.000 1.000
44.790 582.000 1.000
44.800 566.000 1.000
44.810 574.000 1.000
44.820 588.000 1.000
44.830 578.000 1.000
44.840 582.000 1.000
44.850 590.000 1.000
44.860 604.000 1.000
44.870 595.000 1.000
44.880 632.000 1.000
44.890 640.000 1.000
44.900 593.000 1.000
44.910 614.000 1.000
44.920 673.000 1.000
44.930 632.000 1.000
44.940 612.000 1.000
44.950 653.000 1.000
44.960 654.000 1.000
44.970 654.000 1.000
44.980 658.000 1.000
44.990 696.000 1.000
45.000 689.000 1.000
45.010 674.000 1.000
45.020 665.000 1.000
45.030 705.000 1.000
45.040 696.000 1.000
45.050 664.000 1.000
45.060 702.000 1.000
45.070 660.000 1.000
45.080 679.000 1.000
45.090 672.000 1.000
45.100 682.000 1.000
45.110 665.000 1.000
45.120 685.000 1.000
45.130 668.000 1.000
45.140 655.000 1.000
45.150 636.000 1.000
45.160 627.000 1.000
45.170 637.000 1.000
45.180 646.000 1.000
45.190 670.000 1.000
45.200 650.000 1.000
45.210 621.000 1.000
45.220 638.000 1.000
45.230 635.000 1.000
45.240 599.000 1.000
45.250 619.000 1.000
45.260 602.000 1.000
45.270 611.000 1.000
45.280 591.000 1.000
45.290 606.000 1.000
45.300 656.000 1.000
45.310 682.000 1.000
45.320 601.000 1.000
45.330 601.000 1.000
45.340 602.000 1.000
45.350 619.000 1.000
45.360 637.000 1.000
45.370 620.000 1.000
45.380 641.000 1.000
45.390 653.000 1.000
45.400 635.000 1.000
45.410 645.000 1.000
45.420 647.000 1.000
45.430 679.000 1.000
45.440 662.000 1.000
45.450 694.000 1.000
45.460 690.000 1.000
45.470 703.000 1.000
45.480 663.000 1.000
45.490 679.000 1.000
45.500 675.000 1.000
45.510 659.000 1.000
45.520 668.000 1.000
45.530 655.000 1.000
45.540 685.000 1.000
45.550 677.000 1.000
45.560 674.000 1.000
45.570 664.000 1.000
45.580 671.000 1.000
45.590 646.000 1.000
45.600 631.000 1.000
45.610 652.000 1.000
45.620 646.000 1.000
45.630 644.000 1.000
45.640 643.000 1.000
45.650 666.000 1.000
45.660 636.000 1.000
45.670 598.000 1.000
45.680 607.000 1.000
45.690 617.000 1.000
45.700 655.000 1.000
45.710 636.000 1.000
45.720 599.000 1.000
45.730 600.000 1.000
45.740 590.000 1.000
45.750 606.000 1.000
45.760 588.000 1.000
45.770 568.000 1.000
45.780 607.000 1.000
45.790 610.000 1.000
45.800 605.000 1.000
45.810 568.000 1.000
45.820 578.000 1.000
45.830 591.000 1.000
45.840 592.000 1.000
45.850 573.000 1.000
45.860 552.000 1.000
45.870 566.000 1.000
45.880 539.000 1.000
45.890 548.000 1.000
45.900 532.000 1.000
45.910 550.000 1.000
45.920 497.000 1.000
45.930 510.000 1.000
45.940 506.000 1.000
45.950 530.000 1.000
45.960 520.000 1.000
45.970 499.000 1.000
45.980 494.000 1.000
45.990 510.000 1.000
46.000 499.000 1.000
46.010 461.000 1.000
46.020 458.000 1.000
46.030 464.000 1.000
46.040 462.000 1.000
46.050 460.000 1.000
46.060 465.000 1.000
46.070 473.000 1.000
46.080 483.000 1.000
46.090 452.000 1.000
46.100 445.000 1.000
46.110 440.000 1.000
46.120 466.000 1.000
46.130 475.000 1.000
46.140 462.000 1.000
46.150 452.000 1.000
46.160 434.000 1.000
46.170 462.000 1.000
46.180 472.000 1.000
46.190 439.000 1.000
46.200 455.000 1.000
46.210 455.000 1.000
46.220 474.000 1.000
46.230 459.000 1.000
46.240 438.000 1.000
46.250 439.000 1.000
46.260 447.000 1.000
46.270 428.000 1.000
46.280 438.000 1.000
46.290 448.000 1.000
46.300 423.000 1.000
46.310 423.000 1.000
46.320 417.000 1.000
46.330 444.000 1.000
46.340 430.000 1.000
46.350 435.000 1.000
46.360 437.000 1.000
46.370 430.000 1.000
46.380 444.000 1.000
46.390 456.000 1.000
46.400 433.000 1.000
46.410 435.000 1.000
46.420 464.000 1.000
46.430 457.000 1.000
46.440 463.000 1.000
46.450 468.000 1.000
46.460 417.000 1.000
46.470 417.000 1.000
46.480 444.000 1.000
46.490 453.000 1.000
46.500 460.000 1.000
46.510 457.000 1.000
46.520 468.000 1.000
46.530 443.000 1.000
46.540 444.000 1.000
46.550 448.000 1.000
46.560 453.000 1.000
46.570 445.000 1.000
46.580 444.000 1.000
46.590 455.000 1.000
46.600 448.000 1.000
46.610 416.000 1.000
46.620 418.000 1.000
46.630 414.000 1.000
46.640 400.000 1.000
46.650 416.000 1.000
46.660 443.000 1.000
46.670 439.000 1.000
46.680 449.000 1.000
46.690 429.000 1.000
46.700 426.000 1.000
46.710 440.000 1.000
46.720 454.000 1.000
46.730 478.000 1.000
46.740 453.000 1.000
46.750 431.000 1.000
46.760 408.000 1.000
46.770 433.000 1.000
46.780 420.000 1.000
46.790 450.000 1.000
46.800 433.000 1.000
46.810 415.000 1.000
46.820 433.000 1.000
46.830 436.000 1.000
46.840 422.000 1.000
46.850 431.000 1.000
46.860 438.000 1.000
46.870 446.000 1.000
46.880 412.000 1.000
46.890 394.000 1.000
46.900 408.000 1.000
46.910 414.000 1.000
46.920 423.000 1.000
46.930 442.000 1.000
46.940 418.000 1.000
46.950 416.000 1.000
46.960 417.000 1.000
46.970 420.000 1.000
46.980 429.000 1.000
46.990 425.000 1.000
47.000 431.000 1.000
47.010 415.000 1.000
47.020 425.000 1.000
47.030 411.000 1.000
47.040 433.000 1.000
47.050 443.000 1.000
47.060 420.000 1.000
47.070 420.000 1.000
47.080 417.000 1.000
47.090 429.000 1.000
47.100 450.000 1.000
47.110 449.000 1.000
47.120 446.000 1.000
47.130 462.000 1.000
47.140 439.000 1.000
47.150 445.000 1.000
47.160 448.000 1.000
47.170 467.000 1.000
47.180 448.000 1.000
47.190 469.000 1.000
47.200 469.000 1.000
47.210 487.000 1.000
47.220 518.000 1.000
47.230 484.000 1.000
47.240 487.000 1.000
47.250 491.000 1.000
47.260 492.000 1.000
47.270 518.000 1.000
47.280 544.000 1.000
47.290 534.000 1.000
47.300 501.000 1.000
47.310 512.000 1.000
47.320 502.000 1.000
47.330 512.000 1.000
47.340 504.000 1.000
47.350 524.000 1.000
47.360 513.000 1.000
47.370 505.000 1.000
47.380 506.000 1.000
47.390 535.000 1.000
47.400 503.000 1.000
47.410 503.000 1.000
47.420 524.000 1.000
47.430 498.000 1.000
47.440 520.000 1.000
47.450 498.000 1.000
47.460 501.000 1.000
47.470 495.000 1.000
47.480 482.000 1.000
47.490 460.000 1.000
47.500 464.000 1.000
47.510 465.000 1.000
47.520 473.000 1.000
47.530 470.000 1.000
47.540 498.000 1.000
47.550 484.000 1.000
47.560 476.000 1.000
47.570 491.000 1.000
47.580 476.000 1.000
47.590 495.000 1.000
47.600 469.000 1.000
47.610 481.000 1.000
47.620 472.000 1.000
47.630 506.000 1.000
47.640 463.000 1.000
47.650 455.000 1.000
47.660 476.000 1.000
47.670 476.000 1.000
47.680 475.000 1.000
47.690 512.000 1.000
47.700 510.000 1.000
47.710 481.000 1.000
47.720 493.000 1.000
47.730 509.000 1.000
47.740 504.000 1.000
47.750 517.000 1.000
47.760 521.000 1.000
47.770 517.000 1.000
47.780 515.000 1.000
47.790 502.000 1.000
47.800 462.000 1.000
47.810 486.000 1.000
47.820 504.000 1.000
47.830 499.000 1.000
47.840 522.000 1.000
47.850 535.000 1.000
47.860 501.000 1.000
47.870 497.000 1.000
47.880 513.000 1.000
47.890 524.000 1.000
47.900 502.000 1.000
47.910 503.000 1.000
47.920 523.000 1.000
47.930 521.000 1.000
47.940 545.000 1.000
47.950 523.000 1.000
47.960 508.000 1.000
47.970 550.000 1.000
47.980 548.000 1.000
47.990 539.000 1.000
48.000 523.000 1.000
48.010 527.000 1.000
48.020 541.000 1.000
48.030 510.000 1.000
48.040 524.000 1.000
48.050 502.000 1.000
48.060 533.000 1.000
48.070 531.000 1.000
48.080 544.000 1.000
48.090 520.000 1.000
48.100 557.000 1.000
48.110 528.000 1.000
48.120 493.000 1.000
48.130 493.000 1.000
48.140 524.000 1.000
48.150 507.000 1.000
48.160 500.000 1.000
48.170 490.000 1.000
48.180 508.000 1.000
48.190 503.000 1.000
48.200 495.000 1.000
48.210 519.000 1.000
48.220 510.000 1.000
48.230 503.000 1.000
48.240 489.000 1.000
48.250 458.000 1.000
48.260 480.000 1.000
48.270 479.000 1.000
48.280 470.000 1.000
48.290 472.000 1.000
48.300 473.000 1.000
48.310 462.000 1.000
48.320 458.000 1.000
48.330 480.000 1.000
48.340 479.000 1.000
48.350 452.000 1.000
48.360 479.000 1.000
48.370 479.000 1.000
48.380 498.000 1.000
48.390 488.000 1.000
48.400 459.000 1.000
48.410 433.000 1.000
48.420 457.000 1.000
48.430 460.000 1.000
48.440 467.000 1.000
48.450 459.000 1.000
48.460 444.000 1.000
48.470 441.000 1.000
48.480 469.000 1.000
48.490 471.000 1.000
48.500 456.000 1.000
48.510 434.000 1.000
48.520 444.000 1.000
48.530 465.000 1.000
48.540 461.000 1.000
48.550 453.000 1.000
48.560 474.000 1.000
48.570 443.000 1.000
48.580 439.000 1.000
48.590 435.000 1.000
48.600 461.000 1.000
48.610 456.000 1.000
48.620 470.000 1.000
48.630 406.000 1.000
48.640 434.000 1.000
48.650 413.000 1.000
48.660 417.000 1.000
48.670 407.000 1.000
48.680 393.000 1.000
48.690 399.000 1.000
48.700 416.000 1.000
48.710 402.000 1.000
48.720 418.000 1.000
48.730 429.000 1.000
48.740 406.000 1.000
48.750 415.000 1.000
48.760 394.000 1.000
48.770 401.000 1.000
48.780 416.000 1.000
48.790 422.000 1.000
48.800 392.000 1.000
48.810 398.000 1.000
48.820 389.000 1.000
48.830 389.000 1.000
48.840 391.000 1.000
48.850 378.000 1.000
48.860 359.000 1.000
48.870 391.000 1.000
48.880 389.000 1.000
48.890 359.000 1.000
48.900 375.000 1.000
48.910 351.000 1.000
48.920 365.000 1.000
48.930 368.000 1.000
48.940 355.000 1.000
48.950 371.000 1.000
48.960 374.000 1.000
48.970 350.000 1.000
48.980 369.000 1.000
48.990 358.000 1.000
49.000 352.000 1.000
49.010 360.000 1.000
49.020 384.000 1.000
49.030 373.000 1.000
49.040 359.000 1.000
49.050 384.000 1.000
49.060 370.000 1.000
49.070 369.000 1.000
49.080 389.000 1.000
49.090 378.000 1.000
49.100 384.000 1.000
49.110 373.000 1.000
49.120 400.000 1.000
49.130 394.000 1.000
49.140 404.000 1.000
49.150 411.000 1.000
49.160 437.000 1.000
49.170 434.000 1.000
49.180 420.000 1.000
49.190 391.000 1.000
49.200 400.000 1.000
49.210 418.000 1.000
49.220 403.000 1.000
49.230 386.000 1.000
49.240 401.000 1.000
49.250 394.000 1.000
49.260 391.000 1.000
49.270 408.000 1.000
49.280 410.000 1.000
49.290 395.000 1.000
49.300 411.000 1.000
49.310 409.000 1.000
49.320 418.000 1.000
49.330 413.000 1.000
49.340 401.000 1.000
49.350 382.000 1.000
49.360 400.000 1.000
49.370 391.000 1.000
49.380 417.000 1.000
49.390 411.000 1.000
49.400 396.000 1.000
49.410 404.000 1.000
49.420 419.000 1.000
49.430 421.000 1.000
49.440 399.000 1.000
49.450 397.000 1.000
49.460 382.000 1.000
49.470 407.000 1.000
49.480 407.000 1.000
49.490 409.000 1.000
49.500 396.000 1.000
49.510 382.000 1.000
49.520 414.000 1.000
49.530 424.000 1.000
49.540 443.000 1.000
49.550 440.000 1.000
49.560 418.000 1.000
49.570 393.000 1.000
49.580 408.000 1.000
49.590 408.000 1.000
49.600 393.000 1.000
49.610 405.000 1.000
49.620 415.000 1.000
49.630 409.000 1.000
49.640 411.000 1.000
49.650 413.000 1.000
49.660 423.000 1.000
49.670 418.000 1.000
49.680 368.000 1.000
49.690 388.000 1.000
49.700 396.000 1.000
49.710 374.000 1.000
49.720 381.000 1.000
49.730 425.000 1.000
49.740 430.000 1.000
49.750 415.000 1.000
49.760 411.000 1.000
49.770 397.000 1.000
49.780 382.000 1.000
49.790 408.000 1.000
49.800 406.000 1.000
49.810 408.000 1.000
49.820 395.000 1.000
49.830 386.000 1.000
49.840 401.000 1.000
49.850 396.000 1.000
49.860 396.000 1.000
49.870 430.000 1.000
49.880 416.000 1.000
49.890 394.000 1.000
49.900 399.000 1.000
49.910 402.000 1.000
49.920 381.000 1.000
49.930 407.000 1.000
49.940 431.000 1.000
49.950 420.000 1.000
49.960 378.000 1.000
49.970 399.000 1.000
49.980 383.000 1.000
49.990 389.000 1.000
50.000 426.000 1.000
50.010 392.000 1.000
50.020 364.000 1.000
50.030 377.000 1.000
50.040 383.000 1.000
50.050 378.000 1.000
50.060 387.000 1.000
50.070 398.000 1.000
50.080 396.000 1.000
50.090 399.000 1.000
50.100 399.000 1.000
50.110 395.000 1.000
50.120 391.000 1.000
50.130 387.000 1.000
50.140 395.000 1.000
50.150 402.000 1.000
50.160 414.000 1.000
50.170 412.000 1.000
50.180 395.000 1.000
50.190 410.000 1.000
50.200 408.000 1.000
50.210 396.000 1.000
50.220 399.000 1.000
50.230 407.000 1.000
50.240 397.000 1.000
50.250 410.000 1.000
50.260 424.000 1.000
50.270 415.000 1.000
50.280 429.000 1.000
50.290 421.000 1.000
50.300 413.000 1.000
50.310 419.000 1.000
50.320 394.000 1.000
50.330 362.000 1.000
50.340 355.000 1.000
50.350 397.000 1.000
50.360 381.000 1.000
50.370 393.000 1.000
50.380 393.000 1.000
50.390 410.000 1.000
50.400 410.000 1.000
50.410 406.000 1.000
50.420 404.000 1.000
50.430 398.000 1.000
50.440 383.000 1.000
50.450 380.000 1.000
50.460 385.000 1.000
50.470 382.000 1.000
50.480 364.000 1.000
50.490 385.000 1.000
50.500 376.000 1.000
50.510 370.000 1.000
50.520 389.000 1.000
50.530 387.000 1.000
50.540 369.000 1.000
50.550 374.000 1.000
50.560 357.000 1.000
50.570 337.000 1.000
50.580 361.000 1.000
50.590 355.000 1.000
50.600 353.000 1.000
50.610 373.000 1.000
50.620 375.000 1.000
50.630 411.000 1.000
50.640 378.000 1.000
50.650 369.000 1.000
50.660 360.000 1.000
50.670 362.000 1.000
50.680 364.000 1.000
50.690 354.000 1.000
50.700 378.000 1.000
50.710 381.000 1.000
50.720 391.000 1.000
50.730 375.000 1.000
50.740 380.000 1.000
50.750 377.000 1.000
50.760 358.000 1.000
50.770 398.000 1.000
50.780 387.000 1.000
50.790 386.000 1.000
50.800 388.000 1.000
50.810 388.000 1.000
50.820 371.000 1.000
50.830 359.000 1.000
50.840 374.000 1.000
50.850 356.000 1.000
50.860 343.000 1.000
50.870 353.000 1.000
50.880 385.000 1.000
50.890 355.000 1.000
50.900 379.000 1.000
50.910 362.000 1.000
50.920 347.000 1.000
50.930 374.000 1.000
50.940 366.000 1.000
50.950 361.000 1.000
50.960 355.000 1.000
50.970 363.000 1.000
50.980 347.000 1.000
50.990 376.000 1.000
51.000 346.000 1.000
51.010 335.000 1.000
51.020 371.000 1.000
51.030 371.000 1.000
51.040 352.000 1.000
51.050 350.000 1.000
51.060 373.000 1.000
51.070 371.000 1.000
51.080 352.000 1.000
51.090 360.000 1.000
51.100 352.000 1.000
51.110 358.000 1.000
51.120 358.000 1.000
51.130 339.000 1.000
51.140 337.000 1.000
51.150 360.000 1.000
51.160 372.000 1.000
51.170 344.000 1.000
51.180 345.000 1.000
51.190 345.000 1.000
51.200 381.000 1.000
51.210 356.000 1.000
51.220 351.000 1.000
51.230 325.000 1.000
51.240 360.000 1.000
51.250 363.000 1.000
51.260 368.000 1.000
51.270 373.000 1.000
51.280 353.000 1.000
51.290 356.000 1.000
51.300 359.000 1.000
51.310 352.000 1.000
51.320 355.000 1.000
51.330 344.000 1.000
51.340 352.000 1.000
51.350 358.000 1.000
51.360 349.000 1.000
51.370 322.000 1.000
51.380 345.000 1.000
51.390 342.000 1.000
51.400 348.000 1.000
51.410 354.000 1.000
51.420 358.000 1.000
51.430 353.000 1.000
51.440 345.000 1.000
51.450 369.000 1.000
51.460 380.000 1.000
51.470 364.000 1.000
51.480 335.000 1.000
51.490 369.000 1.000
51.500 386.000 1.000
51.510 372.000 1.000
51.520 350.000 1.000
51.530 381.000 1.000
51.540 395.000 1.000
51.550 354.000 1.000
51.560 327.000 1.000
51.570 336.000 1.000
51.580 362.000 1.000
51.590 358.000 1.000
51.600 350.000 1.000
51.610 335.000 1.000
51.620 334.000 1.000
51.630 358.000 1.000
51.640 372.000 1.000
51.650 375.000 1.000
51.660 348.000 1.000
51.670 358.000 1.000
51.680 356.000 1.000
51.690 351.000 1.000
51.700 324.000 1.000
51.710 343.000 1.000
51.720 366.000 1.000
51.730 365.000 1.000
51.740 354.000 1.000
51.750 357.000 1.000
51.760 371.000 1.000
51.770 373.000 1.000
51.780 364.000 1.000
51.790 346.000 1.000
51.800 365.000 1.000
51.810 361.000 1.000
51.820 348.000 1.000
51.830 361.000 1.000
51.840 349.000 1.000
51.850 388.000 1.000
51.860 355.000 1.000
51.870 349.000 1.000
51.880 357.000 1.000
51.890 353.000 1.000
51.900 376.000 1.000
51.910 363.000 1.000
51.920 356.000 1.000
51.930 364.000 1.000
51.940 354.000 1.000
51.950 370.000 1.000
51.960 384.000 1.000
51.970 366.000 1.000
51.980 348.000 1.000
51.990 361.000 1.000
52.000 391.000 1.000
52.010 372.000 1.000
52.020 368.000 1.000
52.030 390.000 1.000
52.040 383.000 1.000
52.050 365.000 1.000
52.060 310.000 1.000
52.070 340.000 1.000
52.080 363.000 1.000
52.090 360.000 1.000
52.100 364.000 1.000
52.110 362.000 1.000
52.120 375.000 1.000
52.130 383.000 1.000
52.140 392.000 1.000
52.150 376.000 1.000
52.160 353.000 1.000
52.170 361.000 1.000
52.180 362.000 1.000
52.190 355.000 1.000
52.200 364.000 1.000
52.210 361.000 1.000
52.220 374.000 1.000
52.230 383.000 1.000
52.240 370.000 1.000
52.250 355.000 1.000
52.260 360.000 1.000
52.270 358.000 1.000
52.280 369.000 1.000
52.290 360.000 1.000
52.300 354.000 1.000
52.310 375.000 1.000
52.320 347.000 1.000
52.330 349.000 1.000
52.340 351.000 1.000
52.350 351.000 1.000
52.360 332.000 1.000
52.370 349.000 1.000
52.380 367.000 1.000
52.390 362.000 1.000
52.400 361.000 1.000
52.410 375.000 1.000
52.420 367.000 1.000
52.430 365.000 1.000
52.440 354.000 1.000
52.450 342.000 1.000
52.460 320.000 1.000
52.470 308.000 1.000
52.480 332.000 1.000
52.490 384.000 1.000
52.500 370.000 1.000
52.510 364.000 1.000
52.520 366.000 1.000
52.530 358.000 1.000
52.540 363.000 1.000
52.550 363.000 1.000
52.560 361.000 1.000
52.570 346.000 1.000
52.580 357.000 1.000
52.590 351.000 1.000
52.600 338.000 1.000
52.610 353.000 1.000
52.620 366.000 1.000
52.630 380.000 1.000
52.640 368.000 1.000
52.650 374.000 1.000
52.660 367.000 1.000
52.670 358.000 1.000
52.680 357.000 1.000
52.690 368.000 1.000
52.700 365.000 1.000
52.710 362.000 1.000
52.720 380.000 1.000
52.730 368.000 1.000
52.740 365.000 1.000
52.750 373.000 1.000
52.760 391.000 1.000
52.770 412.000 1.000
52.780 401.000 1.000
52.790 388.000 1.000
52.800 365.000 1.000
52.810 378.000 1.000
52.820 393.000 1.000
52.830 398.000 1.000
52.840 385.000 1.000
52.850 385.000 1.000
52.860 386.000 1.000
52.870 373.000 1.000
52.880 369.000 1.000
52.890 406.000 1.000
52.900 417.000 1.000
52.910 404.000 1.000
52.920 374.000 1.000
52.930 375.000 1.000
52.940 370.000 1.000
52.950 361.000 1.000
52.960 358.000 1.000
52.970 382.000 1.000
52.980 402.000 1.000
52.990 423.000 1.000
53.000 400.000 1.000
53.010 370.000 1.000
53.020 373.000 1.000
53.030 376.000 1.000
53.040 370.000 1.000
53.050 386.000 1.000
53.060 369.000 1.000
53.070 373.000 1.000
53.080 368.000 1.000
53.090 373.000 1.000
53.100 382.000 1.000
53.110 382.000 1.000
53.120 388.000 1.000
53.130 364.000 1.000
53.140 358.000 1.000
53.150 388.000 1.000
53.160 394.000 1.000
53.170 389.000 1.000
53.180 401.000 1.000
53.190 396.000 1.000
53.200 398.000 1.000
53.210 397.000 1.000
53.220 380.000 1.000
53.230 366.000 1.000
53.240 398.000 1.000
53.250 386.000 1.000
53.260 356.000 1.000
53.270 355.000 1.000
53.280 377.000 1.000
53.290 383.000 1.000
53.300 402.000 1.000
53.310 409.000 1.000
53.320 380.000 1.000
53.330 358.000 1.000
53.340 349.000 1.000
53.350 357.000 1.000
53.360 367.000 1.000
53.370 379.000 1.000
53.380 342.000 1.000
53.390 339.000 1.000
53.400 361.000 1.000
53.410 381.000 1.000
53.420 381.000 1.000
53.430 369.000 1.000
53.440 356.000 1.000
53.450 347.000 1.000
53.460 351.000 1.000
53.470 362.000 1.000
53.480 364.000 1.000
53.490 343.000 1.000
53.500 365.000 1.000
53.510 357.000 1.000
53.520 349.000 1.000
53.530 329.000 1.000
53.540 327.000 1.000
53.550 355.000 1.000
53.560 349.000 1.000
53.570 351.000 1.000
53.580 369.000 1.000
53.590 357.000 1.000
53.600 370.000 1.000
53.610 364.000 1.000
53.620 354.000 1.000
53.630 371.000 1.000
53.640 361.000 1.000
53.650 356.000 1.000
53.660 361.000 1.000
53.670 377.000 1.000
53.680 395.000 1.000
53.690 378.000 1.000
53.700 342.000 1.000
53.710 359.000 1.000
53.720 381.000 1.000
53.730 346.000 1.000
53.740 368.000 1.000
53.750 377.000 1.000
53.760 384.000 1.000
53.770 386.000 1.000
53.780 392.000 1.000
53.790 387.000 1.000
53.800 386.000 1.000
53.810 370.000 1.000
53.820 359.000 1.000
53.830 364.000 1.000
53.840 378.000 1.000
53.850 385.000 1.000
53.860 380.000 1.000
53.870 385.000 1.000
53.880 407.000 1.000
53.890 381.000 1.000
53.900 387.000 1.000
53.910 392.000 1.000
53.920 360.000 1.000
53.930 405.000 1.000
53.940 405.000 1.000
53.950 364.000 1.000
53.960 370.000 1.000
53.970 370.000 1.000
53.980 357.000 1.000
53.990 390.000 1.000
54.000 364.000 1.000
54.010 346.000 1.000
54.020 371.000 1.000
54.030 374.000 1.000
54.040 395.000 1.000
54.050 381.000 1.000
54.060 338.000 1.000
54.070 356.000 1.000
54.080 362.000 1.000
54.090 362.000 1.000
54.100 363.000 1.000
54.110 351.000 1.000
54.120 368.000 1.000
54.130 364.000 1.000
54.140 367.000 1.000
54.150 371.000 1.000
54.160 378.000 1.000
54.170 355.000 1.000
54.180 335.000 1.000
54.190 349.000 1.000
54.200 362.000 1.000
54.210 324.000 1.000
54.220 350.000 1.000
54.230 356.000 1.000
54.240 341.000 1.000
54.250 346.000 1.000
54.260 361.000 1.000
54.270 366.000 1.000
54.280 352.000 1.000
54.290 349.000 1.000
54.300 361.000 1.000
54.310 351.000 1.000
54.320 356.000 1.000
54.330 341.000 1.000
54.340 371.000 1.000
54.350 383.000 1.000
54.360 374.000 1.000
54.370 354.000 1.000
54.380 349.000 1.000
54.390 362.000 1.000
54.400 360.000 1.000
54.410 362.000 1.000
54.420 374.000 1.000
54.430 378.000 1.000
54.440 372.000 1.000
54.450 361.000 1.000
54.460 361.000 1.000
54.470 348.000 1.000
54.480 362.000 1.000
54.490 365.000 1.000
54.500 337.000 1.000
54.510 322.000 1.000
54.520 345.000 1.000
54.530 368.000 1.000
54.540 344.000 1.000
54.550 339.000 1.000
54.560 370.000 1.000
54.570 346.000 1.000
54.580 354.000 1.000
54.590 351.000 1.000
54.600 331.000 1.000
54.610 323.000 1.000
54.620 366.000 1.000
54.630 340.000 1.000
54.640 330.000 1.000
54.650 342.000 1.000
54.660 346.000 1.000
54.670 335.000 1.000
54.680 339.000 1.000
54.690 351.000 1.000
54.700 357.000 1.000
54.710 352.000 1.000
54.720 347.000 1.000
54.730 337.000 1.000
54.740 350.000 1.000
54.750 339.000 1.000
54.760 331.000 1.000
54.770 333.000 1.000
54.780 354.000 1.000
54.790 359.000 1.000
54.800 345.000 1.000
54.810 345.000 1.000
54.820 337.000 1.000
54.830 340.000 1.000
54.840 330.000 1.000
54.850 361.000 1.000
54.860 349.000 1.000
54.870 339.000 1.000
54.880 341.000 1.000
54.890 322.000 1.000
54.900 318.000 1.000
54.910 356.000 1.000
54.920 352.000 1.000
54.930 345.000 1.000
54.940 359.000 1.000
54.950 327.000 1.000
54.960 331.000 1.000
54.970 322.000 1.000
54.980 338.000 1.000
54.990 335.000 1.000
55.000 355.000 1.000
*RAS_INT_END
*RAS_DATA_END
