*RAS_DATA_START
*RAS_HEADER_START
*CORR_POS_DB_NAME "Sample"
*CORR_POS_GONIO_RADIUS ""
*CORR_POS_NODE_INDEX01 ""
*CORR_POS_NODE_INDEX02 ""
*CORR_POS_NODE_INDEX03 ""
*CORR_POS_NODE_INDEX04 ""
*CORR_POS_NODE_INDEX05 ""
*CORR_POS_NODE_INDEX06 ""
*CORR_POS_NODE_INDEX07 ""
*CORR_POS_NODE_INDEX08 ""
*CORR_POS_NODE_INDEX09 ""
*CORR_POS_NODE_INDEX10 ""
*CORR_POS_NODE_INDEX11 ""
*CORR_POS_NODE_LABEL01 "Si(111)"
*CORR_POS_NODE_LABEL02 "Si(220)"
*CORR_POS_NODE_LABEL03 "Si(311)"
*CORR_POS_NODE_LABEL04 "Si(400)"
*CORR_POS_NODE_LABEL05 "Si(331)"
*CORR_POS_NODE_LABEL06 "Si(422)"
*CORR_POS_NODE_LABEL07 "Si(511)"
*CORR_POS_NODE_LABEL08 "Si(440)"
*CORR_POS_NODE_LABEL09 "Si(531)"
*CORR_POS_NODE_LABEL10 "Si(620)"
*CORR_POS_NODE_LABEL11 "Si(533)"
*CORR_POS_NODE_POS_CALC01 "28.377"
*CORR_POS_NODE_POS_CALC02 "47.2506"
*CORR_POS_NODE_POS_CALC03 "56.0725"
*CORR_POS_NODE_POS_CALC04 "69.0822"
*CORR_POS_NODE_POS_CALC05 "76.3294"
*CORR_POS_NODE_POS_CALC06 "87.9853"
*CORR_POS_NODE_POS_CALC07 "94.9091"
*CORR_POS_NODE_POS_CALC08 "106.668"
*CORR_POS_NODE_POS_CALC09 "114.054"
*CORR_POS_NODE_POS_CALC10 "127.511"
*CORR_POS_NODE_POS_CALC11 "136.864"
*CORR_POS_NODE_POS_MEAS01 "28.377"
*CORR_POS_NODE_POS_MEAS02 "47.2506"
*CORR_POS_NODE_POS_MEAS03 "56.0725"
*CORR_POS_NODE_POS_MEAS04 "69.0822"
*CORR_POS_NODE_POS_MEAS05 "76.3294"
*CORR_POS_NODE_POS_MEAS06 "87.9853"
*CORR_POS_NODE_POS_MEAS07 "94.9091"
*CORR_POS_NODE_POS_MEAS08 "106.668"
*CORR_POS_NODE_POS_MEAS09 "114.054"
*CORR_POS_NODE_POS_MEAS10 "127.511"
*CORR_POS_NODE_POS_MEAS11 "136.864"
*CORR_POS_OPT_ATTR "集中法"
*CORR_POS_PARAM_MU ""
*CORR_POS_PARAM_PL ""
*CORR_POS_SEMODEL_TYPE "0"
*CORR_POS_STANDARD_TYPE ""
*CORR_POS_VALUE_ANALYZER "None"
*CORR_POS_VALUE_CMONO "None"
*CORR_POS_VALUE_IMONO "None"
*CORR_POS_VALUE_IS "1.250deg"
*CORR_POS_VALUE_ISL "10.0mm"
*CORR_POS_VALUE_ISOLLER "5.0deg"
*CORR_POS_VALUE_RS1 "1.250deg"
*CORR_POS_VALUE_RS2 "0.3mm"
*CORR_POS_VALUE_RSOLLER "5.0deg"
*CORR_POS_XG_FOCUS_L ""
*CORR_POS_XG_WAVE_TYPE ""
*CORR_POS_XG_WAVE_VALUE ""
*DISP_FMT_X "%.2f"
*DISP_FMT_Y "%.0f"
*DISP_FULLSCALE "39500.0000000000"
*DISP_LINE_COLOR "255.0000000000"
*DISP_LINE_STYLE "0.0000000000"
*DISP_LINE_WIDTH "0.2500000000"
*DISP_NOTE "測定データ-1"
*DISP_OFFSET_Y "0.0000000000"
*DISP_PEAKSEARCH_UNIT_Y "CPS"
*DISP_RANGE_BOTTOM "0.0000000000"
*DISP_RANGE_LEFT "3.0000000000"
*DISP_RANGE_LOGCUTOFF "0.0100000000"
*DISP_RANGE_RIGHT "55.0000000000"
*DISP_RANGE_TOP "39500.0000000000"
*DISP_SCALE_MODE_Y "0.0000000000"
*DISP_TAB_NAME "2θ/θ"
*DISP_TITLE_Y "強度"
*DISP_UNIT_Y "CPS"
*DISP_WINDOW_NAME "MSG_MACROENGINE"
*FILE_COMMENT " "
*FILE_MD5 ""
*FILE_MEMO " "
*FILE_OPERATOR "administrator"
*FILE_PART_ID "MEAS_PBEA_00223"
*FILE_SAMPLE " "
*FILE_TYPE "RAS_RAW"
*FILE_USERGROUP "システムマネージャ"
*FILE_VERSION "1.0000000000"
*HW_ATTACHMENT_ID "ATT1031"
*HW_ATTACHMENT_NAME "6サンプルチェンジャ|ASC-6"
*HW_COUNTER_ID-0 "CUT0025"
*HW_COUNTER_ID-1 "CUT0020"
*HW_COUNTER_ID-2 "CUT0020"
*HW_COUNTER_ID-3 "CMC0021"
*HW_COUNTER_NAME-0 "D/teX Ultra|D/teX Ultra"
*HW_COUNTER_NAME-1 "None|None"
*HW_COUNTER_NAME-2 "None|None"
*HW_COUNTER_NAME-3 "検出器モノクロメータ|Detector monochromator"
*HW_COUNTER_SELECT_NAME "D/teX Ultra|D/teX Ultra"
*HW_GONIOMETER_ID "GON0070"
*HW_GONIOMETER_NAME "MiniFlex 300/600|MiniFlex 300/600"
*HW_GONIOMETER_RADIUS-0 "79.0"
*HW_GONIOMETER_RADIUS-1 "91.5"
*HW_GONIOMETER_RADIUS-2 "150.0"
*HW_GONIOMETER_RADIUS-3 "0"
*HW_GONIOMETER_RADIUS-4 "103.4"
*HW_GONIOMETER_RADIUS-5 "150.0"
*HW_GONIOMETER_RADIUS-6 "46.6"
*HW_GONIOMETER_RADIUS-7 "160.0"
*HW_I_OPT_ID-0 "ISL0021"
*HW_I_OPT_ID-1 "ISO0021"
*HW_I_OPT_NAME-0 "発散スリット|Divergence slit"
*HW_I_OPT_NAME-1 "入射平行スリット|Incident parallel slit"
*HW_R_ATTENUATER_AUTOMODE "0"
*HW_R_OPT_ID-0 "RSS0021"
*HW_R_OPT_ID-1 "RSO0021"
*HW_R_OPT_ID-2 "RRS0021"
*HW_R_OPT_NAME-0 "散乱スリット|Scattering slit"
*HW_R_OPT_NAME-1 "受光平行スリット|Receiving soller slit"
*HW_R_OPT_NAME-2 "受光スリット|Receiving slit"
*HW_SAMPLE_HOLDER_ID "SMP0000"
*HW_SAMPLE_HOLDER_NAME "無し|None"
*HW_XG_CURRENT_MAX "15"
*HW_XG_CURRENT_MIN "2"
*HW_XG_CURRENT_RESOLUTION "1"
*HW_XG_CURRENT_UNIT "mA"
*HW_XG_FOCUS "1mm x 10mm"
*HW_XG_FOCUS_TYPE "Normal"
*HW_XG_ID "1060"
*HW_XG_NAME "300W/600W 封入管-B|300W/600W Sealed tube-B"
*HW_XG_TARGET_ATOMIC_NUMBER "29.0000000000"
*HW_XG_TARGET_NAME "Cu"
*HW_XG_TYPE "Hermetic"
*HW_XG_VOLTAGE_MAX "40"
*HW_XG_VOLTAGE_MIN "20"
*HW_XG_VOLTAGE_RESOLUTION "1"
*HW_XG_VOLTAGE_UNIT "kV"
*HW_XG_WATT_MAX "1"
*HW_XG_WATT_UNIT "kW"
*HW_XG_WAVE_LENGTH_ALPHA1 "1.540593"
*HW_XG_WAVE_LENGTH_ALPHA2 "1.544414"
*HW_XG_WAVE_LENGTH_BETA "1.392250"
*MEAS_COND_AXIS_NAME-0 "2θ/θ"
*MEAS_COND_AXIS_NAME-1 "試料回転"
*MEAS_COND_AXIS_NAME-2 "試料交換"
*MEAS_COND_AXIS_NAME-3 "Soller(inc.)"
*MEAS_COND_AXIS_NAME-4 "IHS"
*MEAS_COND_AXIS_NAME-5 "DS"
*MEAS_COND_AXIS_NAME-6 "SS"
*MEAS_COND_AXIS_NAME-7 "Soller(rec.)"
*MEAS_COND_AXIS_NAME-8 "RS"
*MEAS_COND_AXIS_NAME-9 "フィルター"
*MEAS_COND_AXIS_NAME-10 "モノクロメータ"
*MEAS_COND_AXIS_NAME-11 "PHA"
*MEAS_COND_AXIS_NAME_INTERNAL-0 "TwoThetaTheta"
*MEAS_COND_AXIS_NAME_INTERNAL-1 "Spin"
*MEAS_COND_AXIS_NAME_INTERNAL-2 "Change"
*MEAS_COND_AXIS_NAME_INTERNAL-3 "IncidentSollerSlit"
*MEAS_COND_AXIS_NAME_INTERNAL-4 "IncidentAxdSlit"
*MEAS_COND_AXIS_NAME_INTERNAL-5 "IncidentSlitBox"
*MEAS_COND_AXIS_NAME_INTERNAL-6 "ReceivingSlitBox1"
*MEAS_COND_AXIS_NAME_INTERNAL-7 "ReceivingSollerSlit"
*MEAS_COND_AXIS_NAME_INTERNAL-8 "ReceivingSlitBox2"
*MEAS_COND_AXIS_NAME_INTERNAL-9 "Filter"
*MEAS_COND_AXIS_NAME_INTERNAL-10 "CounterMonochromator"
*MEAS_COND_AXIS_NAME_INTERNAL-11 "PHA"
*MEAS_COND_AXIS_NAME_MAGICNO-0 "268632064.0000000000"
*MEAS_COND_AXIS_NAME_MAGICNO-1 "16842752.0000000000"
*MEAS_COND_AXIS_NAME_MAGICNO-2 "16842752.0000000000"
*MEAS_COND_AXIS_NAME_MAGICNO-3 "20971521.0000000000"
*MEAS_COND_AXIS_NAME_MAGICNO-4 "22020097.0000000000"
*MEAS_COND_AXIS_NAME_MAGICNO-5 "22020097.0000000000"
*MEAS_COND_AXIS_NAME_MAGICNO-6 "23068673.0000000000"
*MEAS_COND_AXIS_NAME_MAGICNO-7 "20971521.0000000000"
*MEAS_COND_AXIS_NAME_MAGICNO-8 "23068673.0000000000"
*MEAS_COND_AXIS_NAME_MAGICNO-9 "20971521.0000000000"
*MEAS_COND_AXIS_NAME_MAGICNO-10 "20971521.0000000000"
*MEAS_COND_AXIS_NAME_MAGICNO-11 "0.0000000000"
*MEAS_COND_AXIS_OFFSET-0 "0.0000000000"
*MEAS_COND_AXIS_OFFSET-1 "-"
*MEAS_COND_AXIS_OFFSET-2 "-"
*MEAS_COND_AXIS_OFFSET-3 "-"
*MEAS_COND_AXIS_OFFSET-4 "-"
*MEAS_COND_AXIS_OFFSET-5 "-"
*MEAS_COND_AXIS_OFFSET-6 "-"
*MEAS_COND_AXIS_OFFSET-7 "-"
*MEAS_COND_AXIS_OFFSET-8 "-"
*MEAS_COND_AXIS_OFFSET-9 "-"
*MEAS_COND_AXIS_OFFSET-10 "-"
*MEAS_COND_AXIS_OFFSET-11 "-"
*MEAS_COND_AXIS_POSITION-0 "10.0000000000"
*MEAS_COND_AXIS_POSITION-1 "0.0000000000"
*MEAS_COND_AXIS_POSITION-2 "4.0000000000"
*MEAS_COND_AXIS_POSITION-3 "2.5deg"
*MEAS_COND_AXIS_POSITION-4 "10.0mm"
*MEAS_COND_AXIS_POSITION-5 "1.250deg"
*MEAS_COND_AXIS_POSITION-6 "13.0mm(Open)"
*MEAS_COND_AXIS_POSITION-7 "2.5deg"
*MEAS_COND_AXIS_POSITION-8 "13.0mm"
*MEAS_COND_AXIS_POSITION-9 "K-beta(x1)"
*MEAS_COND_AXIS_POSITION-10 "None"
*MEAS_COND_AXIS_POSITION-11 "34.0000000000"
*MEAS_COND_AXIS_UNIT-0 "deg"
*MEAS_COND_AXIS_UNIT-1 ""
*MEAS_COND_AXIS_UNIT-2 ""
*MEAS_COND_AXIS_UNIT-3 ""
*MEAS_COND_AXIS_UNIT-4 ""
*MEAS_COND_AXIS_UNIT-5 ""
*MEAS_COND_AXIS_UNIT-6 ""
*MEAS_COND_AXIS_UNIT-7 ""
*MEAS_COND_AXIS_UNIT-8 ""
*MEAS_COND_AXIS_UNIT-9 ""
*MEAS_COND_AXIS_UNIT-10 ""
*MEAS_COND_AXIS_UNIT-11 "div"
*MEAS_COND_COUNTER_CNTLOSS_CORR "0.0000000000"
*MEAS_COND_COUNTER_PHABASE "34.0000000000"
*MEAS_COND_COUNTER_PHAWINDOW "14.0000000000"
*MEAS_COND_COUNTER_PHA_UNIT "div"
*MEAS_COND_COUNTER_TAUDIFF "0.2500000000"
*MEAS_COND_COUNTER_TAUINT "0.7500000000"
*MEAS_COND_IRRADIATION_MODE "OFF"
*MEAS_COND_IRRADIATION_WIDTH ""
*MEAS_COND_OPT_ATTR " "
*MEAS_COND_OPT_NAME ""
*MEAS_COND_UNSYMMETRIC_MODE "OFF"
*MEAS_COND_XG_CURRENT "15.0000000000"
*MEAS_COND_XG_VOLTAGE "40.0000000000"
*MEAS_COND_XG_WAVE_TYPE "Ka"
*MEAS_DATA_COUNT "5201.0000000000"
*MEAS_SCAN_AXIS_X "2θ/θ"
*MEAS_SCAN_AXIS_X_INTERNAL "TwoThetaTheta"
*MEAS_SCAN_END_TIME "11/24/23 10:37:16"
*MEAS_SCAN_MODE "CONTINUOUS"
*MEAS_SCAN_MONITOR "0"
*MEAS_SCAN_RESOLUTION_X "0.005"
*MEAS_SCAN_SPEED "10.000"
*MEAS_SCAN_SPEED_UNIT "deg/min"
*MEAS_SCAN_SPEED_USER "10.000"
*MEAS_SCAN_START "3.0000000000"
*MEAS_SCAN_START_TIME "11/24/23 10:31:16"
*MEAS_SCAN_STEP "0.0100000000"
*MEAS_SCAN_STOP "55.0000000000"
*MEAS_SCAN_UNIT_X "deg"
*MEAS_SCAN_UNIT_Y "counts"
*SLIT_SYSTEM "0"
*RAS_HEADER_END
*RAS_INT_START
3.000 166.000 1.000
3.010 161.000 1.000
3.020 169.000 1.000
3.030 187.000 1.000
3.040 164.000 1.000
3.050 182.000 1.000
3.060 188.000 1.000
3.070 173.000 1.000
3.080 154.000 1.000
3.090 165.000 1.000
3.100 173.000 1.000
3.110 155.000 1.000
3.120 148.000 1.000
3.130 153.000 1.000
3.140 155.000 1.000
3.150 170.000 1.000
3.160 150.000 1.000
3.170 150.000 1.000
3.180 162.000 1.000
3.190 157.000 1.000
3.200 147.000 1.000
3.210 157.000 1.000
3.220 144.000 1.000
3.230 157.000 1.000
3.240 151.000 1.000
3.250 147.000 1.000
3.260 160.000 1.000
3.270 148.000 1.000
3.280 149.000 1.000
3.290 154.000 1.000
3.300 158.000 1.000
3.310 155.000 1.000
3.320 156.000 1.000
3.330 157.000 1.000
3.340 142.000 1.000
3.350 157.000 1.000
3.360 143.000 1.000
3.370 147.000 1.000
3.380 157.000 1.000
3.390 152.000 1.000
3.400 146.000 1.000
3.410 134.000 1.000
3.420 131.000 1.000
3.430 139.000 1.000
3.440 146.000 1.000
3.450 147.000 1.000
3.460 140.000 1.000
3.470 147.000 1.000
3.480 136.000 1.000
3.490 139.000 1.000
3.500 121.000 1.000
3.510 128.000 1.000
3.520 136.000 1.000
3.530 139.000 1.000
3.540 152.000 1.000
3.550 143.000 1.000
3.560 128.000 1.000
3.570 122.000 1.000
3.580 139.000 1.000
3.590 126.000 1.000
3.600 122.000 1.000
3.610 123.000 1.000
3.620 137.000 1.000
3.630 136.000 1.000
3.640 131.000 1.000
3.650 134.000 1.000
3.660 127.000 1.000
3.670 112.000 1.000
3.680 119.000 1.000
3.690 132.000 1.000
3.700 123.000 1.000
3.710 124.000 1.000
3.720 136.000 1.000
3.730 115.000 1.000
3.740 124.000 1.000
3.750 132.000 1.000
3.760 134.000 1.000
3.770 134.000 1.000
3.780 132.000 1.000
3.790 126.000 1.000
3.800 115.000 1.000
3.810 115.000 1.000
3.820 124.000 1.000
3.830 112.000 1.000
3.840 111.000 1.000
3.850 112.000 1.000
3.860 113.000 1.000
3.870 117.000 1.000
3.880 125.000 1.000
3.890 116.000 1.000
3.900 126.000 1.000
3.910 128.000 1.000
3.920 107.000 1.000
3.930 115.000 1.000
3.940 113.000 1.000
3.950 117.000 1.000
3.960 122.000 1.000
3.970 122.000 1.000
3.980 127.000 1.000
3.990 118.000 1.000
4.000 102.000 1.000
4.010 113.000 1.000
4.020 134.000 1.000
4.030 127.000 1.000
4.040 116.000 1.000
4.050 129.000 1.000
4.060 140.000 1.000
4.070 119.000 1.000
4.080 115.000 1.000
4.090 113.000 1.000
4.100 108.000 1.000
4.110 117.000 1.000
4.120 111.000 1.000
4.130 103.000 1.000
4.140 112.000 1.000
4.150 116.000 1.000
4.160 113.000 1.000
4.170 99.000 1.000
4.180 109.000 1.000
4.190 110.000 1.000
4.200 115.000 1.000
4.210 129.000 1.000
4.220 100.000 1.000
4.230 115.000 1.000
4.240 111.000 1.000
4.250 94.000 1.000
4.260 101.000 1.000
4.270 116.000 1.000
4.280 116.000 1.000
4.290 123.000 1.000
4.300 117.000 1.000
4.310 116.000 1.000
4.320 119.000 1.000
4.330 110.000 1.000
4.340 117.000 1.000
4.350 114.000 1.000
4.360 106.000 1.000
4.370 116.000 1.000
4.380 121.000 1.000
4.390 115.000 1.000
4.400 129.000 1.000
4.410 121.000 1.000
4.420 121.000 1.000
4.430 102.000 1.000
4.440 105.000 1.000
4.450 101.000 1.000
4.460 94.000 1.000
4.470 99.000 1.000
4.480 102.000 1.000
4.490 102.000 1.000
4.500 112.000 1.000
4.510 111.000 1.000
4.520 107.000 1.000
4.530 127.000 1.000
4.540 120.000 1.000
4.550 102.000 1.000
4.560 115.000 1.000
4.570 105.000 1.000
4.580 95.000 1.000
4.590 106.000 1.000
4.600 102.000 1.000
4.610 106.000 1.000
4.620 106.000 1.000
4.630 111.000 1.000
4.640 111.000 1.000
4.650 110.000 1.000
4.660 119.000 1.000
4.670 112.000 1.000
4.680 98.000 1.000
4.690 102.000 1.000
4.700 100.000 1.000
4.710 101.000 1.000
4.720 103.000 1.000
4.730 112.000 1.000
4.740 110.000 1.000
4.750 97.000 1.000
4.760 94.000 1.000
4.770 103.000 1.000
4.780 113.000 1.000
4.790 121.000 1.000
4.800 119.000 1.000
4.810 113.000 1.000
4.820 108.000 1.000
4.830 105.000 1.000
4.840 110.000 1.000
4.850 111.000 1.000
4.860 109.000 1.000
4.870 106.000 1.000
4.880 110.000 1.000
4.890 115.000 1.000
4.900 99.000 1.000
4.910 117.000 1.000
4.920 128.000 1.000
4.930 120.000 1.000
4.940 118.000 1.000
4.950 117.000 1.000
4.960 105.000 1.000
4.970 107.000 1.000
4.980 138.000 1.000
4.990 144.000 1.000
5.000 129.000 1.000
5.010 131.000 1.000
5.020 131.000 1.000
5.030 140.000 1.000
5.040 139.000 1.000
5.050 147.000 1.000
5.060 143.000 1.000
5.070 151.000 1.000
5.080 137.000 1.000
5.090 148.000 1.000
5.100 132.000 1.000
5.110 148.000 1.000
5.120 169.000 1.000
5.130 171.000 1.000
5.140 160.000 1.000
5.150 139.000 1.000
5.160 143.000 1.000
5.170 145.000 1.000
5.180 146.000 1.000
5.190 147.000 1.000
5.200 141.000 1.000
5.210 140.000 1.000
5.220 137.000 1.000
5.230 141.000 1.000
5.240 138.000 1.000
5.250 145.000 1.000
5.260 146.000 1.000
5.270 128.000 1.000
5.280 116.000 1.000
5.290 119.000 1.000
5.300 108.000 1.000
5.310 107.000 1.000
5.320 116.000 1.000
5.330 113.000 1.000
5.340 113.000 1.000
5.350 94.000 1.000
5.360 98.000 1.000
5.370 104.000 1.000
5.380 114.000 1.000
5.390 101.000 1.000
5.400 99.000 1.000
5.410 109.000 1.000
5.420 100.000 1.000
5.430 94.000 1.000
5.440 93.000 1.000
5.450 92.000 1.000
5.460 101.000 1.000
5.470 109.000 1.000
5.480 111.000 1.000
5.490 100.000 1.000
5.500 109.000 1.000
5.510 106.000 1.000
5.520 98.000 1.000
5.530 102.000 1.000
5.540 98.000 1.000
5.550 106.000 1.000
5.560 96.000 1.000
5.570 83.000 1.000
5.580 105.000 1.000
5.590 99.000 1.000
5.600 96.000 1.000
5.610 92.000 1.000
5.620 100.000 1.000
5.630 95.000 1.000
5.640 98.000 1.000
5.650 85.000 1.000
5.660 83.000 1.000
5.670 97.000 1.000
5.680 88.000 1.000
5.690 102.000 1.000
5.700 96.000 1.000
5.710 84.000 1.000
5.720 90.000 1.000
5.730 103.000 1.000
5.740 100.000 1.000
5.750 91.000 1.000
5.760 95.000 1.000
5.770 93.000 1.000
5.780 91.000 1.000
5.790 79.000 1.000
5.800 90.000 1.000
5.810 106.000 1.000
5.820 94.000 1.000
5.830 88.000 1.000
5.840 94.000 1.000
5.850 96.000 1.000
5.860 91.000 1.000
5.870 100.000 1.000
5.880 93.000 1.000
5.890 98.000 1.000
5.900 87.000 1.000
5.910 96.000 1.000
5.920 105.000 1.000
5.930 107.000 1.000
5.940 88.000 1.000
5.950 94.000 1.000
5.960 97.000 1.000
5.970 85.000 1.000
5.980 87.000 1.000
5.990 79.000 1.000
6.000 90.000 1.000
6.010 98.000 1.000
6.020 91.000 1.000
6.030 85.000 1.000
6.040 106.000 1.000
6.050 99.000 1.000
6.060 103.000 1.000
6.070 104.000 1.000
6.080 95.000 1.000
6.090 99.000 1.000
6.100 92.000 1.000
6.110 91.000 1.000
6.120 95.000 1.000
6.130 94.000 1.000
6.140 95.000 1.000
6.150 90.000 1.000
6.160 89.000 1.000
6.170 90.000 1.000
6.180 94.000 1.000
6.190 96.000 1.000
6.200 89.000 1.000
6.210 95.000 1.000
6.220 112.000 1.000
6.230 107.000 1.000
6.240 100.000 1.000
6.250 102.000 1.000
6.260 90.000 1.000
6.270 92.000 1.000
6.280 100.000 1.000
6.290 96.000 1.000
6.300 101.000 1.000
6.310 96.000 1.000
6.320 100.000 1.000
6.330 85.000 1.000
6.340 88.000 1.000
6.350 91.000 1.000
6.360 81.000 1.000
6.370 88.000 1.000
6.380 91.000 1.000
6.390 79.000 1.000
6.400 96.000 1.000
6.410 101.000 1.000
6.420 87.000 1.000
6.430 82.000 1.000
6.440 89.000 1.000
6.450 86.000 1.000
6.460 92.000 1.000
6.470 96.000 1.000
6.480 85.000 1.000
6.490 94.000 1.000
6.500 98.000 1.000
6.510 80.000 1.000
6.520 81.000 1.000
6.530 94.000 1.000
6.540 93.000 1.000
6.550 109.000 1.000
6.560 94.000 1.000
6.570 82.000 1.000
6.580 102.000 1.000
6.590 100.000 1.000
6.600 98.000 1.000
6.610 97.000 1.000
6.620 101.000 1.000
6.630 105.000 1.000
6.640 88.000 1.000
6.650 98.000 1.000
6.660 101.000 1.000
6.670 105.000 1.000
6.680 103.000 1.000
6.690 112.000 1.000
6.700 101.000 1.000
6.710 81.000 1.000
6.720 90.000 1.000
6.730 100.000 1.000
6.740 108.000 1.000
6.750 92.000 1.000
6.760 93.000 1.000
6.770 91.000 1.000
6.780 93.000 1.000
6.790 100.000 1.000
6.800 91.000 1.000
6.810 88.000 1.000
6.820 88.000 1.000
6.830 89.000 1.000
6.840 98.000 1.000
6.850 100.000 1.000
6.860 99.000 1.000
6.870 86.000 1.000
6.880 85.000 1.000
6.890 83.000 1.000
6.900 98.000 1.000
6.910 97.000 1.000
6.920 85.000 1.000
6.930 84.000 1.000
6.940 90.000 1.000
6.950 94.000 1.000
6.960 95.000 1.000
6.970 109.000 1.000
6.980 103.000 1.000
6.990 97.000 1.000
7.000 101.000 1.000
7.010 105.000 1.000
7.020 92.000 1.000
7.030 98.000 1.000
7.040 97.000 1.000
7.050 83.000 1.000
7.060 99.000 1.000
7.070 91.000 1.000
7.080 90.000 1.000
7.090 108.000 1.000
7.100 111.000 1.000
7.110 101.000 1.000
7.120 95.000 1.000
7.130 111.000 1.000
7.140 136.000 1.000
7.150 113.000 1.000
7.160 99.000 1.000
7.170 104.000 1.000
7.180 107.000 1.000
7.190 114.000 1.000
7.200 111.000 1.000
7.210 103.000 1.000
7.220 105.000 1.000
7.230 103.000 1.000
7.240 109.000 1.000
7.250 114.000 1.000
7.260 108.000 1.000
7.270 98.000 1.000
7.280 102.000 1.000
7.290 105.000 1.000
7.300 103.000 1.000
7.310 100.000 1.000
7.320 106.000 1.000
7.330 98.000 1.000
7.340 98.000 1.000
7.350 96.000 1.000
7.360 91.000 1.000
7.370 101.000 1.000
7.380 108.000 1.000
7.390 109.000 1.000
7.400 100.000 1.000
7.410 102.000 1.000
7.420 107.000 1.000
7.430 109.000 1.000
7.440 113.000 1.000
7.450 107.000 1.000
7.460 102.000 1.000
7.470 113.000 1.000
7.480 114.000 1.000
7.490 108.000 1.000
7.500 107.000 1.000
7.510 111.000 1.000
7.520 103.000 1.000
7.530 111.000 1.000
7.540 112.000 1.000
7.550 118.000 1.000
7.560 108.000 1.000
7.570 110.000 1.000
7.580 109.000 1.000
7.590 110.000 1.000
7.600 112.000 1.000
7.610 117.000 1.000
7.620 117.000 1.000
7.630 117.000 1.000
7.640 115.000 1.000
7.650 127.000 1.000
7.660 124.000 1.000
7.670 116.000 1.000
7.680 119.000 1.000
7.690 134.000 1.000
7.700 138.000 1.000
7.710 143.000 1.000
7.720 128.000 1.000
7.730 135.000 1.000
7.740 148.000 1.000
7.750 159.000 1.000
7.760 157.000 1.000
7.770 186.000 1.000
7.780 192.000 1.000
7.790 204.000 1.000
7.800 199.000 1.000
7.810 226.000 1.000
7.820 229.000 1.000
7.830 247.000 1.000
7.840 278.000 1.000
7.850 313.000 1.000
7.860 320.000 1.000
7.870 339.000 1.000
7.880 359.000 1.000
7.890 387.000 1.000
7.900 432.000 1.000
7.910 439.000 1.000
7.920 434.000 1.000
7.930 457.000 1.000
7.940 463.000 1.000
7.950 408.000 1.000
7.960 420.000 1.000
7.970 418.000 1.000
7.980 452.000 1.000
7.990 395.000 1.000
8.000 356.000 1.000
8.010 339.000 1.000
8.020 315.000 1.000
8.030 264.000 1.000
8.040 258.000 1.000
8.050 263.000 1.000
8.060 259.000 1.000
8.070 246.000 1.000
8.080 209.000 1.000
8.090 212.000 1.000
8.100 192.000 1.000
8.110 194.000 1.000
8.120 193.000 1.000
8.130 204.000 1.000
8.140 180.000 1.000
8.150 178.000 1.000
8.160 182.000 1.000
8.170 179.000 1.000
8.180 167.000 1.000
8.190 163.000 1.000
8.200 154.000 1.000
8.210 170.000 1.000
8.220 161.000 1.000
8.230 164.000 1.000
8.240 162.000 1.000
8.250 153.000 1.000
8.260 165.000 1.000
8.270 163.000 1.000
8.280 154.000 1.000
8.290 151.000 1.000
8.300 162.000 1.000
8.310 156.000 1.000
8.320 149.000 1.000
8.330 161.000 1.000
8.340 156.000 1.000
8.350 152.000 1.000
8.360 137.000 1.000
8.370 122.000 1.000
8.380 139.000 1.000
8.390 142.000 1.000
8.400 140.000 1.000
8.410 145.000 1.000
8.420 154.000 1.000
8.430 139.000 1.000
8.440 141.000 1.000
8.450 147.000 1.000
8.460 133.000 1.000
8.470 130.000 1.000
8.480 128.000 1.000
8.490 139.000 1.000
8.500 142.000 1.000
8.510 141.000 1.000
8.520 141.000 1.000
8.530 141.000 1.000
8.540 133.000 1.000
8.550 126.000 1.000
8.560 134.000 1.000
8.570 122.000 1.000
8.580 150.000 1.000
8.590 151.000 1.000
8.600 139.000 1.000
8.610 137.000 1.000
8.620 148.000 1.000
8.630 133.000 1.000
8.640 119.000 1.000
8.650 113.000 1.000
8.660 126.000 1.000
8.670 119.000 1.000
8.680 134.000 1.000
8.690 139.000 1.000
8.700 137.000 1.000
8.710 149.000 1.000
8.720 150.000 1.000
8.730 145.000 1.000
8.740 128.000 1.000
8.750 120.000 1.000
8.760 123.000 1.000
8.770 135.000 1.000
8.780 138.000 1.000
8.790 133.000 1.000
8.800 124.000 1.000
8.810 156.000 1.000
8.820 123.000 1.000
8.830 127.000 1.000
8.840 130.000 1.000
8.850 133.000 1.000
8.860 121.000 1.000
8.870 135.000 1.000
8.880 150.000 1.000
8.890 138.000 1.000
8.900 142.000 1.000
8.910 133.000 1.000
8.920 116.000 1.000
8.930 137.000 1.000
8.940 138.000 1.000
8.950 146.000 1.000
8.960 147.000 1.000
8.970 136.000 1.000
8.980 144.000 1.000
8.990 143.000 1.000
9.000 135.000 1.000
9.010 151.000 1.000
9.020 143.000 1.000
9.030 131.000 1.000
9.040 139.000 1.000
9.050 134.000 1.000
9.060 143.000 1.000
9.070 147.000 1.000
9.080 135.000 1.000
9.090 142.000 1.000
9.100 155.000 1.000
9.110 147.000 1.000
9.120 136.000 1.000
9.130 142.000 1.000
9.140 132.000 1.000
9.150 133.000 1.000
9.160 154.000 1.000
9.170 141.000 1.000
9.180 132.000 1.000
9.190 140.000 1.000
9.200 142.000 1.000
9.210 139.000 1.000
9.220 133.000 1.000
9.230 148.000 1.000
9.240 138.000 1.000
9.250 151.000 1.000
9.260 162.000 1.000
9.270 154.000 1.000
9.280 139.000 1.000
9.290 158.000 1.000
9.300 159.000 1.000
9.310 156.000 1.000
9.320 165.000 1.000
9.330 160.000 1.000
9.340 163.000 1.000
9.350 176.000 1.000
9.360 176.000 1.000
9.370 181.000 1.000
9.380 180.000 1.000
9.390 192.000 1.000
9.400 186.000 1.000
9.410 197.000 1.000
9.420 200.000 1.000
9.430 214.000 1.000
9.440 186.000 1.000
9.450 186.000 1.000
9.460 186.000 1.000
9.470 183.000 1.000
9.480 205.000 1.000
9.490 171.000 1.000
9.500 182.000 1.000
9.510 187.000 1.000
9.520 177.000 1.000
9.530 179.000 1.000
9.540 184.000 1.000
9.550 191.000 1.000
9.560 193.000 1.000
9.570 184.000 1.000
9.580 185.000 1.000
9.590 182.000 1.000
9.600 175.000 1.000
9.610 175.000 1.000
9.620 183.000 1.000
9.630 164.000 1.000
9.640 168.000 1.000
9.650 158.000 1.000
9.660 172.000 1.000
9.670 168.000 1.000
9.680 157.000 1.000
9.690 169.000 1.000
9.700 160.000 1.000
9.710 158.000 1.000
9.720 154.000 1.000
9.730 141.000 1.000
9.740 155.000 1.000
9.750 164.000 1.000
9.760 164.000 1.000
9.770 150.000 1.000
9.780 141.000 1.000
9.790 147.000 1.000
9.800 161.000 1.000
9.810 164.000 1.000
9.820 160.000 1.000
9.830 164.000 1.000
9.840 146.000 1.000
9.850 129.000 1.000
9.860 158.000 1.000
9.870 167.000 1.000
9.880 154.000 1.000
9.890 156.000 1.000
9.900 153.000 1.000
9.910 171.000 1.000
9.920 164.000 1.000
9.930 147.000 1.000
9.940 159.000 1.000
9.950 143.000 1.000
9.960 141.000 1.000
9.970 152.000 1.000
9.980 151.000 1.000
9.990 153.000 1.000
10.000 147.000 1.000
10.010 151.000 1.000
10.020 162.000 1.000
10.030 149.000 1.000
10.040 162.000 1.000
10.050 162.000 1.000
10.060 162.000 1.000
10.070 175.000 1.000
10.080 159.000 1.000
10.090 167.000 1.000
10.100 166.000 1.000
10.110 149.000 1.000
10.120 144.000 1.000
10.130 160.000 1.000
10.140 163.000 1.000
10.150 160.000 1.000
10.160 155.000 1.000
10.170 167.000 1.000
10.180 173.000 1.000
10.190 181.000 1.000
10.200 175.000 1.000
10.210 165.000 1.000
10.220 171.000 1.000
10.230 171.000 1.000
10.240 172.000 1.000
10.250 167.000 1.000
10.260 166.000 1.000
10.270 158.000 1.000
10.280 171.000 1.000
10.290 163.000 1.000
10.300 174.000 1.000
10.310 186.000 1.000
10.320 177.000 1.000
10.330 157.000 1.000
10.340 184.000 1.000
10.350 201.000 1.000
10.360 194.000 1.000
10.370 195.000 1.000
10.380 170.000 1.000
10.390 179.000 1.000
10.400 182.000 1.000
10.410 173.000 1.000
10.420 192.000 1.000
10.430 184.000 1.000
10.440 180.000 1.000
10.450 184.000 1.000
10.460 194.000 1.000
10.470 192.000 1.000
10.480 197.000 1.000
10.490 195.000 1.000
10.500 211.000 1.000
10.510 203.000 1.000
10.520 194.000 1.000
10.530 211.000 1.000
10.540 215.000 1.000
10.550 214.000 1.000
10.560 205.000 1.000
10.570 205.000 1.000
10.580 209.000 1.000
10.590 226.000 1.000
10.600 231.000 1.000
10.610 214.000 1.000
10.620 217.000 1.000
10.630 233.000 1.000
10.640 225.000 1.000
10.650 216.000 1.000
10.660 226.000 1.000
10.670 230.000 1.000
10.680 246.000 1.000
10.690 245.000 1.000
10.700 242.000 1.000
10.710 233.000 1.000
10.720 255.000 1.000
10.730 269.000 1.000
10.740 265.000 1.000
10.750 278.000 1.000
10.760 299.000 1.000
10.770 306.000 1.000
10.780 343.000 1.000
10.790 373.000 1.000
10.800 414.000 1.000
10.810 428.000 1.000
10.820 462.000 1.000
10.830 493.000 1.000
10.840 548.000 1.000
10.850 589.000 1.000
10.860 624.000 1.000
10.870 662.000 1.000
10.880 688.000 1.000
10.890 774.000 1.000
10.900 808.000 1.000
10.910 830.000 1.000
10.920 778.000 1.000
10.930 802.000 1.000
10.940 860.000 1.000
10.950 865.000 1.000
10.960 830.000 1.000
10.970 786.000 1.000
10.980 773.000 1.000
10.990 777.000 1.000
11.000 760.000 1.000
11.010 738.000 1.000
11.020 689.000 1.000
11.030 663.000 1.000
11.040 657.000 1.000
11.050 650.000 1.000
11.060 618.000 1.000
11.070 606.000 1.000
11.080 572.000 1.000
11.090 557.000 1.000
11.100 545.000 1.000
11.110 538.000 1.000
11.120 535.000 1.000
11.130 527.000 1.000
11.140 518.000 1.000
11.150 525.000 1.000
11.160 533.000 1.000
11.170 535.000 1.000
11.180 545.000 1.000
11.190 495.000 1.000
11.200 527.000 1.000
11.210 538.000 1.000
11.220 526.000 1.000
11.230 521.000 1.000
11.240 552.000 1.000
11.250 545.000 1.000
11.260 522.000 1.000
11.270 509.000 1.000
11.280 513.000 1.000
11.290 526.000 1.000
11.300 505.000 1.000
11.310 496.000 1.000
11.320 472.000 1.000
11.330 443.000 1.000
11.340 401.000 1.000
11.350 399.000 1.000
11.360 392.000 1.000
11.370 403.000 1.000
11.380 391.000 1.000
11.390 345.000 1.000
11.400 352.000 1.000
11.410 340.000 1.000
11.420 308.000 1.000
11.430 323.000 1.000
11.440 308.000 1.000
11.450 307.000 1.000
11.460 311.000 1.000
11.470 280.000 1.000
11.480 280.000 1.000
11.490 284.000 1.000
11.500 265.000 1.000
11.510 258.000 1.000
11.520 253.000 1.000
11.530 253.000 1.000
11.540 267.000 1.000
11.550 275.000 1.000
11.560 270.000 1.000
11.570 249.000 1.000
11.580 233.000 1.000
11.590 242.000 1.000
11.600 252.000 1.000
11.610 255.000 1.000
11.620 254.000 1.000
11.630 266.000 1.000
11.640 239.000 1.000
11.650 246.000 1.000
11.660 236.000 1.000
11.670 228.000 1.000
11.680 248.000 1.000
11.690 242.000 1.000
11.700 230.000 1.000
11.710 222.000 1.000
11.720 239.000 1.000
11.730 237.000 1.000
11.740 223.000 1.000
11.750 222.000 1.000
11.760 239.000 1.000
11.770 228.000 1.000
11.780 234.000 1.000
11.790 220.000 1.000
11.800 213.000 1.000
11.810 224.000 1.000
11.820 215.000 1.000
11.830 231.000 1.000
11.840 208.000 1.000
11.850 227.000 1.000
11.860 222.000 1.000
11.870 218.000 1.000
11.880 214.000 1.000
11.890 216.000 1.000
11.900 212.000 1.000
11.910 209.000 1.000
11.920 195.000 1.000
11.930 209.000 1.000
11.940 213.000 1.000
11.950 206.000 1.000
11.960 210.000 1.000
11.970 194.000 1.000
11.980 198.000 1.000
11.990 200.000 1.000
12.000 210.000 1.000
12.010 207.000 1.000
12.020 191.000 1.000
12.030 196.000 1.000
12.040 207.000 1.000
12.050 195.000 1.000
12.060 202.000 1.000
12.070 185.000 1.000
12.080 178.000 1.000
12.090 190.000 1.000
12.100 186.000 1.000
12.110 195.000 1.000
12.120 183.000 1.000
12.130 195.000 1.000
12.140 194.000 1.000
12.150 192.000 1.000
12.160 202.000 1.000
12.170 184.000 1.000
12.180 188.000 1.000
12.190 196.000 1.000
12.200 211.000 1.000
12.210 198.000 1.000
12.220 195.000 1.000
12.230 212.000 1.000
12.240 219.000 1.000
12.250 202.000 1.000
12.260 196.000 1.000
12.270 182.000 1.000
12.280 183.000 1.000
12.290 190.000 1.000
12.300 200.000 1.000
12.310 201.000 1.000
12.320 201.000 1.000
12.330 208.000 1.000
12.340 188.000 1.000
12.350 169.000 1.000
12.360 186.000 1.000
12.370 193.000 1.000
12.380 195.000 1.000
12.390 193.000 1.000
12.400 180.000 1.000
12.410 192.000 1.000
12.420 177.000 1.000
12.430 189.000 1.000
12.440 192.000 1.000
12.450 192.000 1.000
12.460 217.000 1.000
12.470 225.000 1.000
12.480 203.000 1.000
12.490 200.000 1.000
12.500 185.000 1.000
12.510 173.000 1.000
12.520 177.000 1.000
12.530 187.000 1.000
12.540 204.000 1.000
12.550 196.000 1.000
12.560 184.000 1.000
12.570 201.000 1.000
12.580 198.000 1.000
12.590 188.000 1.000
12.600 190.000 1.000
12.610 210.000 1.000
12.620 205.000 1.000
12.630 198.000 1.000
12.640 197.000 1.000
12.650 191.000 1.000
12.660 201.000 1.000
12.670 191.000 1.000
12.680 192.000 1.000
12.690 198.000 1.000
12.700 186.000 1.000
12.710 199.000 1.000
12.720 197.000 1.000
12.730 196.000 1.000
12.740 197.000 1.000
12.750 205.000 1.000
12.760 205.000 1.000
12.770 222.000 1.000
12.780 221.000 1.000
12.790 233.000 1.000
12.800 228.000 1.000
12.810 230.000 1.000
12.820 216.000 1.000
12.830 212.000 1.000
12.840 220.000 1.000
12.850 209.000 1.000
12.860 216.000 1.000
12.870 204.000 1.000
12.880 213.000 1.000
12.890 220.000 1.000
12.900 227.000 1.000
12.910 234.000 1.000
12.920 232.000 1.000
12.930 230.000 1.000
12.940 225.000 1.000
12.950 224.000 1.000
12.960 231.000 1.000
12.970 245.000 1.000
12.980 236.000 1.000
12.990 247.000 1.000
13.000 252.000 1.000
13.010 266.000 1.000
13.020 244.000 1.000
13.030 234.000 1.000
13.040 270.000 1.000
13.050 251.000 1.000
13.060 253.000 1.000
13.070 282.000 1.000
13.080 267.000 1.000
13.090 265.000 1.000
13.100 236.000 1.000
13.110 229.000 1.000
13.120 252.000 1.000
13.130 254.000 1.000
13.140 260.000 1.000
13.150 247.000 1.000
13.160 253.000 1.000
13.170 248.000 1.000
13.180 237.000 1.000
13.190 224.000 1.000
13.200 226.000 1.000
13.210 241.000 1.000
13.220 257.000 1.000
13.230 227.000 1.000
13.240 240.000 1.000
13.250 239.000 1.000
13.260 236.000 1.000
13.270 249.000 1.000
13.280 262.000 1.000
13.290 255.000 1.000
13.300 250.000 1.000
13.310 242.000 1.000
13.320 234.000 1.000
13.330 246.000 1.000
13.340 242.000 1.000
13.350 231.000 1.000
13.360 246.000 1.000
13.370 258.000 1.000
13.380 263.000 1.000
13.390 274.000 1.000
13.400 295.000 1.000
13.410 303.000 1.000
13.420 293.000 1.000
13.430 341.000 1.000
13.440 368.000 1.000
13.450 388.000 1.000
13.460 405.000 1.000
13.470 430.000 1.000
13.480 433.000 1.000
13.490 467.000 1.000
13.500 447.000 1.000
13.510 443.000 1.000
13.520 470.000 1.000
13.530 493.000 1.000
13.540 502.000 1.000
13.550 488.000 1.000
13.560 498.000 1.000
13.570 497.000 1.000
13.580 474.000 1.000
13.590 451.000 1.000
13.600 436.000 1.000
13.610 434.000 1.000
13.620 436.000 1.000
13.630 406.000 1.000
13.640 376.000 1.000
13.650 388.000 1.000
13.660 372.000 1.000
13.670 356.000 1.000
13.680 361.000 1.000
13.690 355.000 1.000
13.700 329.000 1.000
13.710 304.000 1.000
13.720 299.000 1.000
13.730 275.000 1.000
13.740 260.000 1.000
13.750 292.000 1.000
13.760 287.000 1.000
13.770 280.000 1.000
13.780 276.000 1.000
13.790 252.000 1.000
13.800 255.000 1.000
13.810 266.000 1.000
13.820 232.000 1.000
13.830 236.000 1.000
13.840 251.000 1.000
13.850 235.000 1.000
13.860 220.000 1.000
13.870 224.000 1.000
13.880 214.000 1.000
13.890 219.000 1.000
13.900 227.000 1.000
13.910 220.000 1.000
13.920 228.000 1.000
13.930 205.000 1.000
13.940 205.000 1.000
13.950 203.000 1.000
13.960 213.000 1.000
13.970 200.000 1.000
13.980 199.000 1.000
13.990 219.000 1.000
14.000 206.000 1.000
14.010 197.000 1.000
14.020 200.000 1.000
14.030 217.000 1.000
14.040 203.000 1.000
14.050 199.000 1.000
14.060 207.000 1.000
14.070 207.000 1.000
14.080 214.000 1.000
14.090 221.000 1.000
14.100 187.000 1.000
14.110 191.000 1.000
14.120 198.000 1.000
14.130 195.000 1.000
14.140 176.000 1.000
14.150 203.000 1.000
14.160 212.000 1.000
14.170 191.000 1.000
14.180 178.000 1.000
14.190 199.000 1.000
14.200 215.000 1.000
14.210 219.000 1.000
14.220 208.000 1.000
14.230 207.000 1.000
14.240 196.000 1.000
14.250 209.000 1.000
14.260 212.000 1.000
14.270 215.000 1.000
14.280 199.000 1.000
14.290 197.000 1.000
14.300 201.000 1.000
14.310 212.000 1.000
14.320 199.000 1.000
14.330 201.000 1.000
14.340 200.000 1.000
14.350 216.000 1.000
14.360 229.000 1.000
14.370 218.000 1.000
14.380 214.000 1.000
14.390 234.000 1.000
14.400 224.000 1.000
14.410 212.000 1.000
14.420 215.000 1.000
14.430 210.000 1.000
14.440 210.000 1.000
14.450 225.000 1.000
14.460 223.000 1.000
14.470 204.000 1.000
14.480 194.000 1.000
14.490 199.000 1.000
14.500 212.000 1.000
14.510 216.000 1.000
14.520 216.000 1.000
14.530 211.000 1.000
14.540 218.000 1.000
14.550 225.000 1.000
14.560 205.000 1.000
14.570 219.000 1.000
14.580 228.000 1.000
14.590 219.000 1.000
14.600 230.000 1.000
14.610 242.000 1.000
14.620 241.000 1.000
14.630 234.000 1.000
14.640 233.000 1.000
14.650 237.000 1.000
14.660 237.000 1.000
14.670 233.000 1.000
14.680 243.000 1.000
14.690 230.000 1.000
14.700 216.000 1.000
14.710 207.000 1.000
14.720 223.000 1.000
14.730 215.000 1.000
14.740 250.000 1.000
14.750 244.000 1.000
14.760 239.000 1.000
14.770 244.000 1.000
14.780 249.000 1.000
14.790 236.000 1.000
14.800 238.000 1.000
14.810 259.000 1.000
14.820 255.000 1.000
14.830 214.000 1.000
14.840 217.000 1.000
14.850 236.000 1.000
14.860 244.000 1.000
14.870 233.000 1.000
14.880 227.000 1.000
14.890 232.000 1.000
14.900 250.000 1.000
14.910 238.000 1.000
14.920 224.000 1.000
14.930 215.000 1.000
14.940 215.000 1.000
14.950 239.000 1.000
14.960 225.000 1.000
14.970 201.000 1.000
14.980 213.000 1.000
14.990 239.000 1.000
15.000 212.000 1.000
15.010 236.000 1.000
15.020 240.000 1.000
15.030 233.000 1.000
15.040 217.000 1.000
15.050 215.000 1.000
15.060 239.000 1.000
15.070 226.000 1.000
15.080 210.000 1.000
15.090 221.000 1.000
15.100 220.000 1.000
15.110 246.000 1.000
15.120 240.000 1.000
15.130 219.000 1.000
15.140 222.000 1.000
15.150 224.000 1.000
15.160 222.000 1.000
15.170 225.000 1.000
15.180 223.000 1.000
15.190 244.000 1.000
15.200 246.000 1.000
15.210 246.000 1.000
15.220 214.000 1.000
15.230 219.000 1.000
15.240 221.000 1.000
15.250 210.000 1.000
15.260 227.000 1.000
15.270 223.000 1.000
15.280 213.000 1.000
15.290 229.000 1.000
15.300 237.000 1.000
15.310 231.000 1.000
15.320 229.000 1.000
15.330 227.000 1.000
15.340 241.000 1.000
15.350 249.000 1.000
15.360 242.000 1.000
15.370 246.000 1.000
15.380 240.000 1.000
15.390 246.000 1.000
15.400 247.000 1.000
15.410 231.000 1.000
15.420 223.000 1.000
15.430 228.000 1.000
15.440 246.000 1.000
15.450 256.000 1.000
15.460 254.000 1.000
15.470 254.000 1.000
15.480 254.000 1.000
15.490 236.000 1.000
15.500 264.000 1.000
15.510 277.000 1.000
15.520 271.000 1.000
15.530 236.000 1.000
15.540 245.000 1.000
15.550 248.000 1.000
15.560 273.000 1.000
15.570 289.000 1.000
15.580 266.000 1.000
15.590 288.000 1.000
15.600 258.000 1.000
15.610 275.000 1.000
15.620 280.000 1.000
15.630 272.000 1.000
15.640 265.000 1.000
15.650 279.000 1.000
15.660 270.000 1.000
15.670 301.000 1.000
15.680 308.000 1.000
15.690 281.000 1.000
15.700 300.000 1.000
15.710 339.000 1.000
15.720 338.000 1.000
15.730 325.000 1.000
15.740 371.000 1.000
15.750 371.000 1.000
15.760 384.000 1.000
15.770 417.000 1.000
15.780 444.000 1.000
15.790 457.000 1.000
15.800 508.000 1.000
15.810 545.000 1.000
15.820 580.000 1.000
15.830 616.000 1.000
15.840 660.000 1.000
15.850 742.000 1.000
15.860 813.000 1.000
15.870 854.000 1.000
15.880 962.000 1.000
15.890 995.000 1.000
15.900 1030.000 1.000
15.910 1079.000 1.000
15.920 1060.000 1.000
15.930 1086.000 1.000
15.940 1090.000 1.000
15.950 1059.000 1.000
15.960 1099.000 1.000
15.970 1061.000 1.000
15.980 1028.000 1.000
15.990 1050.000 1.000
16.000 1019.000 1.000
16.010 950.000 1.000
16.020 905.000 1.000
16.030 813.000 1.000
16.040 776.000 1.000
16.050 772.000 1.000
16.060 766.000 1.000
16.070 734.000 1.000
16.080 646.000 1.000
16.090 609.000 1.000
16.100 591.000 1.000
16.110 530.000 1.000
16.120 525.000 1.000
16.130 547.000 1.000
16.140 510.000 1.000
16.150 458.000 1.000
16.160 447.000 1.000
16.170 446.000 1.000
16.180 414.000 1.000
16.190 380.000 1.000
16.200 398.000 1.000
16.210 426.000 1.000
16.220 385.000 1.000
16.230 358.000 1.000
16.240 352.000 1.000
16.250 364.000 1.000
16.260 341.000 1.000
16.270 349.000 1.000
16.280 347.000 1.000
16.290 335.000 1.000
16.300 322.000 1.000
16.310 306.000 1.000
16.320 327.000 1.000
16.330 330.000 1.000
16.340 302.000 1.000
16.350 289.000 1.000
16.360 290.000 1.000
16.370 293.000 1.000
16.380 297.000 1.000
16.390 294.000 1.000
16.400 325.000 1.000
16.410 312.000 1.000
16.420 263.000 1.000
16.430 267.000 1.000
16.440 291.000 1.000
16.450 276.000 1.000
16.460 308.000 1.000
16.470 301.000 1.000
16.480 289.000 1.000
16.490 295.000 1.000
16.500 296.000 1.000
16.510 285.000 1.000
16.520 290.000 1.000
16.530 326.000 1.000
16.540 314.000 1.000
16.550 307.000 1.000
16.560 290.000 1.000
16.570 292.000 1.000
16.580 310.000 1.000
16.590 300.000 1.000
16.600 283.000 1.000
16.610 281.000 1.000
16.620 297.000 1.000
16.630 281.000 1.000
16.640 279.000 1.000
16.650 294.000 1.000
16.660 299.000 1.000
16.670 288.000 1.000
16.680 292.000 1.000
16.690 286.000 1.000
16.700 290.000 1.000
16.710 297.000 1.000
16.720 277.000 1.000
16.730 271.000 1.000
16.740 266.000 1.000
16.750 269.000 1.000
16.760 288.000 1.000
16.770 277.000 1.000
16.780 277.000 1.000
16.790 272.000 1.000
16.800 268.000 1.000
16.810 273.000 1.000
16.820 300.000 1.000
16.830 291.000 1.000
16.840 268.000 1.000
16.850 285.000 1.000
16.860 281.000 1.000
16.870 266.000 1.000
16.880 284.000 1.000
16.890 275.000 1.000
16.900 287.000 1.000
16.910 258.000 1.000
16.920 251.000 1.000
16.930 259.000 1.000
16.940 272.000 1.000
16.950 280.000 1.000
16.960 251.000 1.000
16.970 273.000 1.000
16.980 301.000 1.000
16.990 310.000 1.000
17.000 301.000 1.000
17.010 278.000 1.000
17.020 264.000 1.000
17.030 286.000 1.000
17.040 294.000 1.000
17.050 290.000 1.000
17.060 278.000 1.000
17.070 268.000 1.000
17.080 304.000 1.000
17.090 291.000 1.000
17.100 299.000 1.000
17.110 274.000 1.000
17.120 270.000 1.000
17.130 265.000 1.000
17.140 266.000 1.000
17.150 283.000 1.000
17.160 282.000 1.000
17.170 273.000 1.000
17.180 274.000 1.000
17.190 281.000 1.000
17.200 283.000 1.000
17.210 264.000 1.000
17.220 269.000 1.000
17.230 290.000 1.000
17.240 283.000 1.000
17.250 279.000 1.000
17.260 283.000 1.000
17.270 300.000 1.000
17.280 279.000 1.000
17.290 254.000 1.000
17.300 252.000 1.000
17.310 280.000 1.000
17.320 272.000 1.000
17.330 277.000 1.000
17.340 310.000 1.000
17.350 300.000 1.000
17.360 273.000 1.000
17.370 269.000 1.000
17.380 274.000 1.000
17.390 267.000 1.000
17.400 284.000 1.000
17.410 269.000 1.000
17.420 267.000 1.000
17.430 272.000 1.000
17.440 262.000 1.000
17.450 290.000 1.000
17.460 292.000 1.000
17.470 269.000 1.000
17.480 292.000 1.000
17.490 285.000 1.000
17.500 265.000 1.000
17.510 260.000 1.000
17.520 264.000 1.000
17.530 271.000 1.000
17.540 290.000 1.000
17.550 309.000 1.000
17.560 312.000 1.000
17.570 317.000 1.000
17.580 283.000 1.000
17.590 276.000 1.000
17.600 301.000 1.000
17.610 292.000 1.000
17.620 293.000 1.000
17.630 295.000 1.000
17.640 296.000 1.000
17.650 294.000 1.000
17.660 306.000 1.000
17.670 295.000 1.000
17.680 299.000 1.000
17.690 300.000 1.000
17.700 313.000 1.000
17.710 312.000 1.000
17.720 349.000 1.000
17.730 359.000 1.000
17.740 390.000 1.000
17.750 379.000 1.000
17.760 370.000 1.000
17.770 358.000 1.000
17.780 376.000 1.000
17.790 402.000 1.000
17.800 420.000 1.000
17.810 421.000 1.000
17.820 416.000 1.000
17.830 410.000 1.000
17.840 425.000 1.000
17.850 416.000 1.000
17.860 395.000 1.000
17.870 415.000 1.000
17.880 419.000 1.000
17.890 405.000 1.000
17.900 419.000 1.000
17.910 399.000 1.000
17.920 418.000 1.000
17.930 395.000 1.000
17.940 364.000 1.000
17.950 365.000 1.000
17.960 357.000 1.000
17.970 357.000 1.000
17.980 368.000 1.000
17.990 357.000 1.000
18.000 345.000 1.000
18.010 322.000 1.000
18.020 323.000 1.000
18.030 313.000 1.000
18.040 332.000 1.000
18.050 353.000 1.000
18.060 321.000 1.000
18.070 295.000 1.000
18.080 302.000 1.000
18.090 317.000 1.000
18.100 311.000 1.000
18.110 312.000 1.000
18.120 315.000 1.000
18.130 279.000 1.000
18.140 277.000 1.000
18.150 282.000 1.000
18.160 311.000 1.000
18.170 281.000 1.000
18.180 299.000 1.000
18.190 299.000 1.000
18.200 282.000 1.000
18.210 302.000 1.000
18.220 292.000 1.000
18.230 288.000 1.000
18.240 281.000 1.000
18.250 301.000 1.000
18.260 309.000 1.000
18.270 288.000 1.000
18.280 279.000 1.000
18.290 290.000 1.000
18.300 299.000 1.000
18.310 307.000 1.000
18.320 312.000 1.000
18.330 301.000 1.000
18.340 303.000 1.000
18.350 292.000 1.000
18.360 281.000 1.000
18.370 287.000 1.000
18.380 298.000 1.000
18.390 294.000 1.000
18.400 305.000 1.000
18.410 331.000 1.000
18.420 303.000 1.000
18.430 312.000 1.000
18.440 322.000 1.000
18.450 311.000 1.000
18.460 324.000 1.000
18.470 336.000 1.000
18.480 326.000 1.000
18.490 319.000 1.000
18.500 323.000 1.000
18.510 349.000 1.000
18.520 341.000 1.000
18.530 361.000 1.000
18.540 355.000 1.000
18.550 350.000 1.000
18.560 346.000 1.000
18.570 397.000 1.000
18.580 396.000 1.000
18.590 402.000 1.000
18.600 441.000 1.000
18.610 453.000 1.000
18.620 458.000 1.000
18.630 466.000 1.000
18.640 498.000 1.000
18.650 499.000 1.000
18.660 544.000 1.000
18.670 504.000 1.000
18.680 497.000 1.000
18.690 527.000 1.000
18.700 538.000 1.000
18.710 558.000 1.000
18.720 533.000 1.000
18.730 477.000 1.000
18.740 496.000 1.000
18.750 517.000 1.000
18.760 516.000 1.000
18.770 477.000 1.000
18.780 459.000 1.000
18.790 451.000 1.000
18.800 456.000 1.000
18.810 440.000 1.000
18.820 443.000 1.000
18.830 421.000 1.000
18.840 416.000 1.000
18.850 431.000 1.000
18.860 413.000 1.000
18.870 395.000 1.000
18.880 422.000 1.000
18.890 424.000 1.000
18.900 405.000 1.000
18.910 397.000 1.000
18.920 387.000 1.000
18.930 399.000 1.000
18.940 370.000 1.000
18.950 399.000 1.000
18.960 382.000 1.000
18.970 350.000 1.000
18.980 378.000 1.000
18.990 381.000 1.000
19.000 388.000 1.000
19.010 413.000 1.000
19.020 400.000 1.000
19.030 409.000 1.000
19.040 404.000 1.000
19.050 417.000 1.000
19.060 408.000 1.000
19.070 401.000 1.000
19.080 415.000 1.000
19.090 423.000 1.000
19.100 445.000 1.000
19.110 442.000 1.000
19.120 417.000 1.000
19.130 412.000 1.000
19.140 438.000 1.000
19.150 454.000 1.000
19.160 461.000 1.000
19.170 470.000 1.000
19.180 435.000 1.000
19.190 463.000 1.000
19.200 502.000 1.000
19.210 517.000 1.000
19.220 541.000 1.000
19.230 599.000 1.000
19.240 617.000 1.000
19.250 649.000 1.000
19.260 718.000 1.000
19.270 795.000 1.000
19.280 900.000 1.000
19.290 954.000 1.000
19.300 1053.000 1.000
19.310 1225.000 1.000
19.320 1303.000 1.000
19.330 1364.000 1.000
19.340 1476.000 1.000
19.350 1631.000 1.000
19.360 1745.000 1.000
19.370 1800.000 1.000
19.380 1905.000 1.000
19.390 1972.000 1.000
19.400 1947.000 1.000
19.410 1874.000 1.000
19.420 1975.000 1.000
19.430 1886.000 1.000
19.440 1807.000 1.000
19.450 1765.000 1.000
19.460 1657.000 1.000
19.470 1575.000 1.000
19.480 1550.000 1.000
19.490 1502.000 1.000
19.500 1465.000 1.000
19.510 1375.000 1.000
19.520 1258.000 1.000
19.530 1156.000 1.000
19.540 1134.000 1.000
19.550 1086.000 1.000
19.560 995.000 1.000
19.570 947.000 1.000
19.580 869.000 1.000
19.590 844.000 1.000
19.600 838.000 1.000
19.610 794.000 1.000
19.620 721.000 1.000
19.630 682.000 1.000
19.640 641.000 1.000
19.650 632.000 1.000
19.660 625.000 1.000
19.670 568.000 1.000
19.680 532.000 1.000
19.690 493.000 1.000
19.700 469.000 1.000
19.710 446.000 1.000
19.720 449.000 1.000
19.730 435.000 1.000
19.740 418.000 1.000
19.750 424.000 1.000
19.760 394.000 1.000
19.770 380.000 1.000
19.780 373.000 1.000
19.790 358.000 1.000
19.800 310.000 1.000
19.810 357.000 1.000
19.820 353.000 1.000
19.830 335.000 1.000
19.840 354.000 1.000
19.850 329.000 1.000
19.860 314.000 1.000
19.870 309.000 1.000
19.880 305.000 1.000
19.890 290.000 1.000
19.900 297.000 1.000
19.910 322.000 1.000
19.920 333.000 1.000
19.930 313.000 1.000
19.940 298.000 1.000
19.950 303.000 1.000
19.960 303.000 1.000
19.970 305.000 1.000
19.980 304.000 1.000
19.990 300.000 1.000
20.000 292.000 1.000
20.010 309.000 1.000
20.020 309.000 1.000
20.030 338.000 1.000
20.040 306.000 1.000
20.050 301.000 1.000
20.060 274.000 1.000
20.070 289.000 1.000
20.080 332.000 1.000
20.090 325.000 1.000
20.100 282.000 1.000
20.110 298.000 1.000
20.120 309.000 1.000
20.130 323.000 1.000
20.140 326.000 1.000
20.150 328.000 1.000
20.160 309.000 1.000
20.170 310.000 1.000
20.180 314.000 1.000
20.190 308.000 1.000
20.200 302.000 1.000
20.210 314.000 1.000
20.220 318.000 1.000
20.230 312.000 1.000
20.240 321.000 1.000
20.250 324.000 1.000
20.260 314.000 1.000
20.270 313.000 1.000
20.280 319.000 1.000
20.290 312.000 1.000
20.300 336.000 1.000
20.310 330.000 1.000
20.320 348.000 1.000
20.330 371.000 1.000
20.340 345.000 1.000
20.350 354.000 1.000
20.360 365.000 1.000
20.370 380.000 1.000
20.380 364.000 1.000
20.390 333.000 1.000
20.400 363.000 1.000
20.410 385.000 1.000
20.420 376.000 1.000
20.430 388.000 1.000
20.440 390.000 1.000
20.450 396.000 1.000
20.460 416.000 1.000
20.470 422.000 1.000
20.480 448.000 1.000
20.490 449.000 1.000
20.500 434.000 1.000
20.510 435.000 1.000
20.520 425.000 1.000
20.530 428.000 1.000
20.540 467.000 1.000
20.550 473.000 1.000
20.560 472.000 1.000
20.570 476.000 1.000
20.580 478.000 1.000
20.590 473.000 1.000
20.600 504.000 1.000
20.610 516.000 1.000
20.620 516.000 1.000
20.630 490.000 1.000
20.640 506.000 1.000
20.650 522.000 1.000
20.660 521.000 1.000
20.670 551.000 1.000
20.680 510.000 1.000
20.690 542.000 1.000
20.700 524.000 1.000
20.710 500.000 1.000
20.720 514.000 1.000
20.730 535.000 1.000
20.740 544.000 1.000
20.750 552.000 1.000
20.760 505.000 1.000
20.770 504.000 1.000
20.780 517.000 1.000
20.790 535.000 1.000
20.800 520.000 1.000
20.810 494.000 1.000
20.820 489.000 1.000
20.830 474.000 1.000
20.840 499.000 1.000
20.850 490.000 1.000
20.860 488.000 1.000
20.870 494.000 1.000
20.880 473.000 1.000
20.890 491.000 1.000
20.900 498.000 1.000
20.910 470.000 1.000
20.920 465.000 1.000
20.930 489.000 1.000
20.940 494.000 1.000
20.950 495.000 1.000
20.960 491.000 1.000
20.970 489.000 1.000
20.980 485.000 1.000
20.990 490.000 1.000
21.000 458.000 1.000
21.010 478.000 1.000
21.020 480.000 1.000
21.030 489.000 1.000
21.040 501.000 1.000
21.050 474.000 1.000
21.060 447.000 1.000
21.070 424.000 1.000
21.080 420.000 1.000
21.090 433.000 1.000
21.100 421.000 1.000
21.110 370.000 1.000
21.120 431.000 1.000
21.130 423.000 1.000
21.140 423.000 1.000
21.150 412.000 1.000
21.160 386.000 1.000
21.170 379.000 1.000
21.180 353.000 1.000
21.190 379.000 1.000
21.200 386.000 1.000
21.210 389.000 1.000
21.220 392.000 1.000
21.230 371.000 1.000
21.240 363.000 1.000
21.250 369.000 1.000
21.260 358.000 1.000
21.270 371.000 1.000
21.280 360.000 1.000
21.290 386.000 1.000
21.300 414.000 1.000
21.310 370.000 1.000
21.320 391.000 1.000
21.330 359.000 1.000
21.340 345.000 1.000
21.350 358.000 1.000
21.360 334.000 1.000
21.370 339.000 1.000
21.380 328.000 1.000
21.390 343.000 1.000
21.400 334.000 1.000
21.410 327.000 1.000
21.420 324.000 1.000
21.430 343.000 1.000
21.440 330.000 1.000
21.450 325.000 1.000
21.460 309.000 1.000
21.470 301.000 1.000
21.480 314.000 1.000
21.490 321.000 1.000
21.500 318.000 1.000
21.510 315.000 1.000
21.520 289.000 1.000
21.530 308.000 1.000
21.540 307.000 1.000
21.550 303.000 1.000
21.560 299.000 1.000
21.570 297.000 1.000
21.580 331.000 1.000
21.590 282.000 1.000
21.600 292.000 1.000
21.610 327.000 1.000
21.620 316.000 1.000
21.630 310.000 1.000
21.640 327.000 1.000
21.650 313.000 1.000
21.660 314.000 1.000
21.670 310.000 1.000
21.680 300.000 1.000
21.690 301.000 1.000
21.700 317.000 1.000
21.710 308.000 1.000
21.720 311.000 1.000
21.730 304.000 1.000
21.740 330.000 1.000
21.750 348.000 1.000
21.760 327.000 1.000
21.770 343.000 1.000
21.780 342.000 1.000
21.790 344.000 1.000
21.800 345.000 1.000
21.810 368.000 1.000
21.820 361.000 1.000
21.830 344.000 1.000
21.840 338.000 1.000
21.850 330.000 1.000
21.860 348.000 1.000
21.870 358.000 1.000
21.880 347.000 1.000
21.890 349.000 1.000
21.900 346.000 1.000
21.910 335.000 1.000
21.920 335.000 1.000
21.930 344.000 1.000
21.940 365.000 1.000
21.950 337.000 1.000
21.960 314.000 1.000
21.970 319.000 1.000
21.980 355.000 1.000
21.990 344.000 1.000
22.000 320.000 1.000
22.010 312.000 1.000
22.020 328.000 1.000
22.030 337.000 1.000
22.040 331.000 1.000
22.050 359.000 1.000
22.060 372.000 1.000
22.070 359.000 1.000
22.080 337.000 1.000
22.090 340.000 1.000
22.100 363.000 1.000
22.110 354.000 1.000
22.120 352.000 1.000
22.130 334.000 1.000
22.140 305.000 1.000
22.150 346.000 1.000
22.160 352.000 1.000
22.170 328.000 1.000
22.180 358.000 1.000
22.190 353.000 1.000
22.200 356.000 1.000
22.210 335.000 1.000
22.220 355.000 1.000
22.230 371.000 1.000
22.240 358.000 1.000
22.250 373.000 1.000
22.260 359.000 1.000
22.270 345.000 1.000
22.280 353.000 1.000
22.290 365.000 1.000
22.300 359.000 1.000
22.310 371.000 1.000
22.320 367.000 1.000
22.330 371.000 1.000
22.340 365.000 1.000
22.350 362.000 1.000
22.360 375.000 1.000
22.370 411.000 1.000
22.380 373.000 1.000
22.390 379.000 1.000
22.400 348.000 1.000
22.410 359.000 1.000
22.420 354.000 1.000
22.430 358.000 1.000
22.440 346.000 1.000
22.450 383.000 1.000
22.460 366.000 1.000
22.470 380.000 1.000
22.480 401.000 1.000
22.490 395.000 1.000
22.500 393.000 1.000
22.510 405.000 1.000
22.520 449.000 1.000
22.530 497.000 1.000
22.540 467.000 1.000
22.550 491.000 1.000
22.560 548.000 1.000
22.570 555.000 1.000
22.580 585.000 1.000
22.590 603.000 1.000
22.600 625.000 1.000
22.610 644.000 1.000
22.620 698.000 1.000
22.630 685.000 1.000
22.640 717.000 1.000
22.650 719.000 1.000
22.660 747.000 1.000
22.670 726.000 1.000
22.680 708.000 1.000
22.690 723.000 1.000
22.700 714.000 1.000
22.710 700.000 1.000
22.720 692.000 1.000
22.730 685.000 1.000
22.740 659.000 1.000
22.750 659.000 1.000
22.760 671.000 1.000
22.770 618.000 1.000
22.780 601.000 1.000
22.790 574.000 1.000
22.800 506.000 1.000
22.810 514.000 1.000
22.820 520.000 1.000
22.830 517.000 1.000
22.840 474.000 1.000
22.850 478.000 1.000
22.860 487.000 1.000
22.870 434.000 1.000
22.880 414.000 1.000
22.890 426.000 1.000
22.900 419.000 1.000
22.910 398.000 1.000
22.920 391.000 1.000
22.930 374.000 1.000
22.940 380.000 1.000
22.950 377.000 1.000
22.960 360.000 1.000
22.970 372.000 1.000
22.980 338.000 1.000
22.990 342.000 1.000
23.000 336.000 1.000
23.010 326.000 1.000
23.020 320.000 1.000
23.030 339.000 1.000
23.040 330.000 1.000
23.050 341.000 1.000
23.060 333.000 1.000
23.070 336.000 1.000
23.080 320.000 1.000
23.090 316.000 1.000
23.100 315.000 1.000
23.110 335.000 1.000
23.120 304.000 1.000
23.130 286.000 1.000
23.140 299.000 1.000
23.150 333.000 1.000
23.160 337.000 1.000
23.170 322.000 1.000
23.180 345.000 1.000
23.190 306.000 1.000
23.200 301.000 1.000
23.210 309.000 1.000
23.220 312.000 1.000
23.230 313.000 1.000
23.240 328.000 1.000
23.250 334.000 1.000
23.260 341.000 1.000
23.270 338.000 1.000
23.280 337.000 1.000
23.290 325.000 1.000
23.300 340.000 1.000
23.310 329.000 1.000
23.320 348.000 1.000
23.330 346.000 1.000
23.340 317.000 1.000
23.350 329.000 1.000
23.360 353.000 1.000
23.370 376.000 1.000
23.380 394.000 1.000
23.390 349.000 1.000
23.400 356.000 1.000
23.410 371.000 1.000
23.420 352.000 1.000
23.430 358.000 1.000
23.440 362.000 1.000
23.450 370.000 1.000
23.460 364.000 1.000
23.470 351.000 1.000
23.480 370.000 1.000
23.490 356.000 1.000
23.500 351.000 1.000
23.510 379.000 1.000
23.520 369.000 1.000
23.530 356.000 1.000
23.540 355.000 1.000
23.550 340.000 1.000
23.560 369.000 1.000
23.570 358.000 1.000
23.580 324.000 1.000
23.590 315.000 1.000
23.600 338.000 1.000
23.610 330.000 1.000
23.620 321.000 1.000
23.630 341.000 1.000
23.640 345.000 1.000
23.650 339.000 1.000
23.660 302.000 1.000
23.670 318.000 1.000
23.680 339.000 1.000
23.690 327.000 1.000
23.700 323.000 1.000
23.710 334.000 1.000
23.720 333.000 1.000
23.730 330.000 1.000
23.740 322.000 1.000
23.750 312.000 1.000
23.760 298.000 1.000
23.770 319.000 1.000
23.780 339.000 1.000
23.790 331.000 1.000
23.800 297.000 1.000
23.810 324.000 1.000
23.820 340.000 1.000
23.830 339.000 1.000
23.840 338.000 1.000
23.850 326.000 1.000
23.860 357.000 1.000
23.870 361.000 1.000
23.880 346.000 1.000
23.890 343.000 1.000
23.900 373.000 1.000
23.910 411.000 1.000
23.920 414.000 1.000
23.930 413.000 1.000
23.940 452.000 1.000
23.950 483.000 1.000
23.960 500.000 1.000
23.970 502.000 1.000
23.980 497.000 1.000
23.990 516.000 1.000
24.000 531.000 1.000
24.010 542.000 1.000
24.020 557.000 1.000
24.030 527.000 1.000
24.040 520.000 1.000
24.050 525.000 1.000
24.060 520.000 1.000
24.070 529.000 1.000
24.080 510.000 1.000
24.090 513.000 1.000
24.100 506.000 1.000
24.110 471.000 1.000
24.120 481.000 1.000
24.130 475.000 1.000
24.140 465.000 1.000
24.150 449.000 1.000
24.160 453.000 1.000
24.170 469.000 1.000
24.180 441.000 1.000
24.190 436.000 1.000
24.200 444.000 1.000
24.210 436.000 1.000
24.220 457.000 1.000
24.230 492.000 1.000
24.240 483.000 1.000
24.250 473.000 1.000
24.260 501.000 1.000
24.270 539.000 1.000
24.280 564.000 1.000
24.290 586.000 1.000
24.300 636.000 1.000
24.310 668.000 1.000
24.320 696.000 1.000
24.330 775.000 1.000
24.340 772.000 1.000
24.350 828.000 1.000
24.360 918.000 1.000
24.370 940.000 1.000
24.380 951.000 1.000
24.390 937.000 1.000
24.400 971.000 1.000
24.410 1017.000 1.000
24.420 977.000 1.000
24.430 953.000 1.000
24.440 948.000 1.000
24.450 941.000 1.000
24.460 900.000 1.000
24.470 871.000 1.000
24.480 848.000 1.000
24.490 794.000 1.000
24.500 776.000 1.000
24.510 720.000 1.000
24.520 703.000 1.000
24.530 644.000 1.000
24.540 621.000 1.000
24.550 604.000 1.000
24.560 605.000 1.000
24.570 571.000 1.000
24.580 549.000 1.000
24.590 535.000 1.000
24.600 495.000 1.000
24.610 446.000 1.000
24.620 447.000 1.000
24.630 456.000 1.000
24.640 441.000 1.000
24.650 426.000 1.000
24.660 408.000 1.000
24.670 385.000 1.000
24.680 386.000 1.000
24.690 402.000 1.000
24.700 397.000 1.000
24.710 366.000 1.000
24.720 378.000 1.000
24.730 358.000 1.000
24.740 350.000 1.000
24.750 336.000 1.000
24.760 348.000 1.000
24.770 343.000 1.000
24.780 329.000 1.000
24.790 330.000 1.000
24.800 338.000 1.000
24.810 334.000 1.000
24.820 328.000 1.000
24.830 328.000 1.000
24.840 317.000 1.000
24.850 313.000 1.000
24.860 315.000 1.000
24.870 329.000 1.000
24.880 325.000 1.000
24.890 303.000 1.000
24.900 311.000 1.000
24.910 299.000 1.000
24.920 324.000 1.000
24.930 317.000 1.000
24.940 331.000 1.000
24.950 334.000 1.000
24.960 328.000 1.000
24.970 313.000 1.000
24.980 327.000 1.000
24.990 317.000 1.000
25.000 318.000 1.000
25.010 313.000 1.000
25.020 323.000 1.000
25.030 341.000 1.000
25.040 332.000 1.000
25.050 338.000 1.000
25.060 354.000 1.000
25.070 347.000 1.000
25.080 338.000 1.000
25.090 339.000 1.000
25.100 325.000 1.000
25.110 343.000 1.000
25.120 342.000 1.000
25.130 342.000 1.000
25.140 414.000 1.000
25.150 423.000 1.000
25.160 419.000 1.000
25.170 411.000 1.000
25.180 412.000 1.000
25.190 422.000 1.000
25.200 439.000 1.000
25.210 477.000 1.000
25.220 479.000 1.000
25.230 471.000 1.000
25.240 480.000 1.000
25.250 485.000 1.000
25.260 484.000 1.000
25.270 498.000 1.000
25.280 527.000 1.000
25.290 497.000 1.000
25.300 466.000 1.000
25.310 492.000 1.000
25.320 489.000 1.000
25.330 477.000 1.000
25.340 475.000 1.000
25.350 469.000 1.000
25.360 468.000 1.000
25.370 461.000 1.000
25.380 416.000 1.000
25.390 395.000 1.000
25.400 420.000 1.000
25.410 407.000 1.000
25.420 404.000 1.000
25.430 381.000 1.000
25.440 370.000 1.000
25.450 373.000 1.000
25.460 397.000 1.000
25.470 390.000 1.000
25.480 369.000 1.000
25.490 359.000 1.000
25.500 357.000 1.000
25.510 357.000 1.000
25.520 353.000 1.000
25.530 359.000 1.000
25.540 338.000 1.000
25.550 324.000 1.000
25.560 348.000 1.000
25.570 355.000 1.000
25.580 326.000 1.000
25.590 334.000 1.000
25.600 325.000 1.000
25.610 303.000 1.000
25.620 311.000 1.000
25.630 291.000 1.000
25.640 294.000 1.000
25.650 301.000 1.000
25.660 316.000 1.000
25.670 322.000 1.000
25.680 318.000 1.000
25.690 309.000 1.000
25.700 289.000 1.000
25.710 274.000 1.000
25.720 283.000 1.000
25.730 286.000 1.000
25.740 279.000 1.000
25.750 291.000 1.000
25.760 311.000 1.000
25.770 267.000 1.000
25.780 313.000 1.000
25.790 298.000 1.000
25.800 287.000 1.000
25.810 280.000 1.000
25.820 279.000 1.000
25.830 278.000 1.000
25.840 273.000 1.000
25.850 261.000 1.000
25.860 268.000 1.000
25.870 275.000 1.000
25.880 273.000 1.000
25.890 296.000 1.000
25.900 309.000 1.000
25.910 295.000 1.000
25.920 292.000 1.000
25.930 291.000 1.000
25.940 295.000 1.000
25.950 288.000 1.000
25.960 281.000 1.000
25.970 304.000 1.000
25.980 308.000 1.000
25.990 285.000 1.000
26.000 293.000 1.000
26.010 312.000 1.000
26.020 297.000 1.000
26.030 303.000 1.000
26.040 309.000 1.000
26.050 319.000 1.000
26.060 331.000 1.000
26.070 332.000 1.000
26.080 347.000 1.000
26.090 351.000 1.000
26.100 357.000 1.000
26.110 361.000 1.000
26.120 388.000 1.000
26.130 404.000 1.000
26.140 413.000 1.000
26.150 418.000 1.000
26.160 447.000 1.000
26.170 456.000 1.000
26.180 447.000 1.000
26.190 468.000 1.000
26.200 476.000 1.000
26.210 480.000 1.000
26.220 488.000 1.000
26.230 476.000 1.000
26.240 510.000 1.000
26.250 511.000 1.000
26.260 520.000 1.000
26.270 524.000 1.000
26.280 524.000 1.000
26.290 492.000 1.000
26.300 520.000 1.000
26.310 532.000 1.000
26.320 507.000 1.000
26.330 504.000 1.000
26.340 513.000 1.000
26.350 480.000 1.000
26.360 470.000 1.000
26.370 454.000 1.000
26.380 485.000 1.000
26.390 488.000 1.000
26.400 486.000 1.000
26.410 508.000 1.000
26.420 504.000 1.000
26.430 456.000 1.000
26.440 490.000 1.000
26.450 513.000 1.000
26.460 499.000 1.000
26.470 480.000 1.000
26.480 516.000 1.000
26.490 518.000 1.000
26.500 505.000 1.000
26.510 488.000 1.000
26.520 489.000 1.000
26.530 490.000 1.000
26.540 471.000 1.000
26.550 492.000 1.000
26.560 468.000 1.000
26.570 452.000 1.000
26.580 453.000 1.000
26.590 466.000 1.000
26.600 453.000 1.000
26.610 441.000 1.000
26.620 423.000 1.000
26.630 433.000 1.000
26.640 421.000 1.000
26.650 412.000 1.000
26.660 413.000 1.000
26.670 375.000 1.000
26.680 357.000 1.000
26.690 360.000 1.000
26.700 357.000 1.000
26.710 331.000 1.000
26.720 330.000 1.000
26.730 350.000 1.000
26.740 326.000 1.000
26.750 332.000 1.000
26.760 332.000 1.000
26.770 341.000 1.000
26.780 323.000 1.000
26.790 314.000 1.000
26.800 310.000 1.000
26.810 299.000 1.000
26.820 280.000 1.000
26.830 276.000 1.000
26.840 291.000 1.000
26.850 307.000 1.000
26.860 281.000 1.000
26.870 254.000 1.000
26.880 242.000 1.000
26.890 267.000 1.000
26.900 291.000 1.000
26.910 292.000 1.000
26.920 270.000 1.000
26.930 281.000 1.000
26.940 262.000 1.000
26.950 256.000 1.000
26.960 274.000 1.000
26.970 260.000 1.000
26.980 266.000 1.000
26.990 285.000 1.000
27.000 259.000 1.000
27.010 250.000 1.000
27.020 290.000 1.000
27.030 278.000 1.000
27.040 262.000 1.000
27.050 266.000 1.000
27.060 268.000 1.000
27.070 272.000 1.000
27.080 275.000 1.000
27.090 257.000 1.000
27.100 249.000 1.000
27.110 250.000 1.000
27.120 249.000 1.000
27.130 252.000 1.000
27.140 253.000 1.000
27.150 262.000 1.000
27.160 272.000 1.000
27.170 297.000 1.000
27.180 303.000 1.000
27.190 272.000 1.000
27.200 258.000 1.000
27.210 258.000 1.000
27.220 251.000 1.000
27.230 268.000 1.000
27.240 281.000 1.000
27.250 261.000 1.000
27.260 264.000 1.000
27.270 303.000 1.000
27.280 276.000 1.000
27.290 278.000 1.000
27.300 275.000 1.000
27.310 280.000 1.000
27.320 277.000 1.000
27.330 289.000 1.000
27.340 301.000 1.000
27.350 287.000 1.000
27.360 313.000 1.000
27.370 316.000 1.000
27.380 287.000 1.000
27.390 293.000 1.000
27.400 314.000 1.000
27.410 289.000 1.000
27.420 289.000 1.000
27.430 297.000 1.000
27.440 285.000 1.000
27.450 294.000 1.000
27.460 314.000 1.000
27.470 294.000 1.000
27.480 295.000 1.000
27.490 305.000 1.000
27.500 307.000 1.000
27.510 306.000 1.000
27.520 308.000 1.000
27.530 312.000 1.000
27.540 299.000 1.000
27.550 308.000 1.000
27.560 307.000 1.000
27.570 300.000 1.000
27.580 313.000 1.000
27.590 312.000 1.000
27.600 302.000 1.000
27.610 296.000 1.000
27.620 294.000 1.000
27.630 300.000 1.000
27.640 310.000 1.000
27.650 292.000 1.000
27.660 272.000 1.000
27.670 307.000 1.000
27.680 308.000 1.000
27.690 310.000 1.000
27.700 306.000 1.000
27.710 300.000 1.000
27.720 298.000 1.000
27.730 277.000 1.000
27.740 294.000 1.000
27.750 310.000 1.000
27.760 302.000 1.000
27.770 282.000 1.000
27.780 291.000 1.000
27.790 287.000 1.000
27.800 274.000 1.000
27.810 281.000 1.000
27.820 282.000 1.000
27.830 274.000 1.000
27.840 283.000 1.000
27.850 300.000 1.000
27.860 285.000 1.000
27.870 275.000 1.000
27.880 271.000 1.000
27.890 272.000 1.000
27.900 280.000 1.000
27.910 283.000 1.000
27.920 261.000 1.000
27.930 248.000 1.000
27.940 266.000 1.000
27.950 242.000 1.000
27.960 239.000 1.000
27.970 258.000 1.000
27.980 238.000 1.000
27.990 232.000 1.000
28.000 244.000 1.000
28.010 250.000 1.000
28.020 262.000 1.000
28.030 263.000 1.000
28.040 252.000 1.000
28.050 244.000 1.000
28.060 223.000 1.000
28.070 241.000 1.000
28.080 231.000 1.000
28.090 235.000 1.000
28.100 242.000 1.000
28.110 252.000 1.000
28.120 247.000 1.000
28.130 254.000 1.000
28.140 228.000 1.000
28.150 239.000 1.000
28.160 236.000 1.000
28.170 221.000 1.000
28.180 227.000 1.000
28.190 258.000 1.000
28.200 235.000 1.000
28.210 219.000 1.000
28.220 251.000 1.000
28.230 242.000 1.000
28.240 256.000 1.000
28.250 256.000 1.000
28.260 252.000 1.000
28.270 246.000 1.000
28.280 239.000 1.000
28.290 245.000 1.000
28.300 249.000 1.000
28.310 265.000 1.000
28.320 263.000 1.000
28.330 266.000 1.000
28.340 254.000 1.000
28.350 253.000 1.000
28.360 260.000 1.000
28.370 296.000 1.000
28.380 288.000 1.000
28.390 283.000 1.000
28.400 282.000 1.000
28.410 262.000 1.000
28.420 270.000 1.000
28.430 267.000 1.000
28.440 258.000 1.000
28.450 285.000 1.000
28.460 290.000 1.000
28.470 287.000 1.000
28.480 284.000 1.000
28.490 298.000 1.000
28.500 299.000 1.000
28.510 309.000 1.000
28.520 305.000 1.000
28.530 324.000 1.000
28.540 302.000 1.000
28.550 276.000 1.000
28.560 305.000 1.000
28.570 295.000 1.000
28.580 291.000 1.000
28.590 277.000 1.000
28.600 290.000 1.000
28.610 298.000 1.000
28.620 282.000 1.000
28.630 279.000 1.000
28.640 296.000 1.000
28.650 290.000 1.000
28.660 284.000 1.000
28.670 260.000 1.000
28.680 268.000 1.000
28.690 275.000 1.000
28.700 255.000 1.000
28.710 259.000 1.000
28.720 250.000 1.000
28.730 244.000 1.000
28.740 242.000 1.000
28.750 241.000 1.000
28.760 246.000 1.000
28.770 249.000 1.000
28.780 235.000 1.000
28.790 258.000 1.000
28.800 244.000 1.000
28.810 248.000 1.000
28.820 276.000 1.000
28.830 272.000 1.000
28.840 255.000 1.000
28.850 258.000 1.000
28.860 253.000 1.000
28.870 234.000 1.000
28.880 245.000 1.000
28.890 257.000 1.000
28.900 244.000 1.000
28.910 258.000 1.000
28.920 246.000 1.000
28.930 218.000 1.000
28.940 229.000 1.000
28.950 237.000 1.000
28.960 257.000 1.000
28.970 245.000 1.000
28.980 264.000 1.000
28.990 252.000 1.000
29.000 231.000 1.000
29.010 222.000 1.000
29.020 204.000 1.000
29.030 227.000 1.000
29.040 249.000 1.000
29.050 252.000 1.000
29.060 240.000 1.000
29.070 230.000 1.000
29.080 235.000 1.000
29.090 255.000 1.000
29.100 242.000 1.000
29.110 242.000 1.000
29.120 250.000 1.000
29.130 238.000 1.000
29.140 238.000 1.000
29.150 266.000 1.000
29.160 250.000 1.000
29.170 262.000 1.000
29.180 277.000 1.000
29.190 234.000 1.000
29.200 251.000 1.000
29.210 249.000 1.000
29.220 246.000 1.000
29.230 232.000 1.000
29.240 241.000 1.000
29.250 267.000 1.000
29.260 259.000 1.000
29.270 261.000 1.000
29.280 253.000 1.000
29.290 252.000 1.000
29.300 255.000 1.000
29.310 256.000 1.000
29.320 266.000 1.000
29.330 249.000 1.000
29.340 252.000 1.000
29.350 246.000 1.000
29.360 247.000 1.000
29.370 258.000 1.000
29.380 263.000 1.000
29.390 280.000 1.000
29.400 270.000 1.000
29.410 253.000 1.000
29.420 246.000 1.000
29.430 271.000 1.000
29.440 271.000 1.000
29.450 252.000 1.000
29.460 261.000 1.000
29.470 269.000 1.000
29.480 271.000 1.000
29.490 270.000 1.000
29.500 275.000 1.000
29.510 278.000 1.000
29.520 270.000 1.000
29.530 287.000 1.000
29.540 282.000 1.000
29.550 292.000 1.000
29.560 283.000 1.000
29.570 298.000 1.000
29.580 286.000 1.000
29.590 263.000 1.000
29.600 273.000 1.000
29.610 267.000 1.000
29.620 289.000 1.000
29.630 272.000 1.000
29.640 275.000 1.000
29.650 270.000 1.000
29.660 281.000 1.000
29.670 254.000 1.000
29.680 243.000 1.000
29.690 257.000 1.000
29.700 263.000 1.000
29.710 241.000 1.000
29.720 245.000 1.000
29.730 261.000 1.000
29.740 236.000 1.000
29.750 223.000 1.000
29.760 258.000 1.000
29.770 238.000 1.000
29.780 257.000 1.000
29.790 253.000 1.000
29.800 231.000 1.000
29.810 236.000 1.000
29.820 206.000 1.000
29.830 230.000 1.000
29.840 225.000 1.000
29.850 227.000 1.000
29.860 238.000 1.000
29.870 240.000 1.000
29.880 228.000 1.000
29.890 227.000 1.000
29.900 226.000 1.000
29.910 221.000 1.000
29.920 221.000 1.000
29.930 225.000 1.000
29.940 233.000 1.000
29.950 235.000 1.000
29.960 239.000 1.000
29.970 225.000 1.000
29.980 214.000 1.000
29.990 227.000 1.000
30.000 224.000 1.000
30.010 238.000 1.000
30.020 238.000 1.000
30.030 246.000 1.000
30.040 210.000 1.000
30.050 207.000 1.000
30.060 218.000 1.000
30.070 219.000 1.000
30.080 232.000 1.000
30.090 246.000 1.000
30.100 224.000 1.000
30.110 223.000 1.000
30.120 229.000 1.000
30.130 237.000 1.000
30.140 219.000 1.000
30.150 203.000 1.000
30.160 226.000 1.000
30.170 240.000 1.000
30.180 222.000 1.000
30.190 224.000 1.000
30.200 256.000 1.000
30.210 235.000 1.000
30.220 252.000 1.000
30.230 251.000 1.000
30.240 258.000 1.000
30.250 264.000 1.000
30.260 278.000 1.000
30.270 273.000 1.000
30.280 284.000 1.000
30.290 282.000 1.000
30.300 275.000 1.000
30.310 288.000 1.000
30.320 315.000 1.000
30.330 317.000 1.000
30.340 309.000 1.000
30.350 333.000 1.000
30.360 335.000 1.000
30.370 356.000 1.000
30.380 380.000 1.000
30.390 388.000 1.000
30.400 390.000 1.000
30.410 393.000 1.000
30.420 426.000 1.000
30.430 410.000 1.000
30.440 421.000 1.000
30.450 437.000 1.000
30.460 417.000 1.000
30.470 389.000 1.000
30.480 401.000 1.000
30.490 391.000 1.000
30.500 394.000 1.000
30.510 379.000 1.000
30.520 365.000 1.000
30.530 342.000 1.000
30.540 336.000 1.000
30.550 324.000 1.000
30.560 325.000 1.000
30.570 332.000 1.000
30.580 327.000 1.000
30.590 321.000 1.000
30.600 308.000 1.000
30.610 297.000 1.000
30.620 297.000 1.000
30.630 286.000 1.000
30.640 274.000 1.000
30.650 266.000 1.000
30.660 269.000 1.000
30.670 273.000 1.000
30.680 286.000 1.000
30.690 279.000 1.000
30.700 270.000 1.000
30.710 254.000 1.000
30.720 236.000 1.000
30.730 233.000 1.000
30.740 238.000 1.000
30.750 224.000 1.000
30.760 244.000 1.000
30.770 252.000 1.000
30.780 250.000 1.000
30.790 232.000 1.000
30.800 205.000 1.000
30.810 221.000 1.000
30.820 226.000 1.000
30.830 236.000 1.000
30.840 223.000 1.000
30.850 237.000 1.000
30.860 229.000 1.000
30.870 244.000 1.000
30.880 245.000 1.000
30.890 233.000 1.000
30.900 230.000 1.000
30.910 217.000 1.000
30.920 214.000 1.000
30.930 228.000 1.000
30.940 219.000 1.000
30.950 226.000 1.000
30.960 227.000 1.000
30.970 226.000 1.000
30.980 226.000 1.000
30.990 227.000 1.000
31.000 225.000 1.000
31.010 218.000 1.000
31.020 230.000 1.000
31.030 224.000 1.000
31.040 210.000 1.000
31.050 203.000 1.000
31.060 208.000 1.000
31.070 244.000 1.000
31.080 247.000 1.000
31.090 221.000 1.000
31.100 211.000 1.000
31.110 232.000 1.000
31.120 250.000 1.000
31.130 227.000 1.000
31.140 236.000 1.000
31.150 229.000 1.000
31.160 220.000 1.000
31.170 228.000 1.000
31.180 221.000 1.000
31.190 213.000 1.000
31.200 222.000 1.000
31.210 208.000 1.000
31.220 219.000 1.000
31.230 215.000 1.000
31.240 237.000 1.000
31.250 222.000 1.000
31.260 206.000 1.000
31.270 221.000 1.000
31.280 229.000 1.000
31.290 226.000 1.000
31.300 230.000 1.000
31.310 246.000 1.000
31.320 235.000 1.000
31.330 237.000 1.000
31.340 228.000 1.000
31.350 214.000 1.000
31.360 211.000 1.000
31.370 208.000 1.000
31.380 222.000 1.000
31.390 242.000 1.000
31.400 239.000 1.000
31.410 232.000 1.000
31.420 233.000 1.000
31.430 219.000 1.000
31.440 221.000 1.000
31.450 211.000 1.000
31.460 199.000 1.000
31.470 219.000 1.000
31.480 228.000 1.000
31.490 237.000 1.000
31.500 224.000 1.000
31.510 213.000 1.000
31.520 225.000 1.000
31.530 236.000 1.000
31.540 238.000 1.000
31.550 228.000 1.000
31.560 224.000 1.000
31.570 235.000 1.000
31.580 238.000 1.000
31.590 220.000 1.000
31.600 224.000 1.000
31.610 232.000 1.000
31.620 228.000 1.000
31.630 230.000 1.000
31.640 242.000 1.000
31.650 220.000 1.000
31.660 232.000 1.000
31.670 243.000 1.000
31.680 227.000 1.000
31.690 231.000 1.000
31.700 241.000 1.000
31.710 266.000 1.000
31.720 252.000 1.000
31.730 262.000 1.000
31.740 281.000 1.000
31.750 267.000 1.000
31.760 281.000 1.000
31.770 291.000 1.000
31.780 314.000 1.000
31.790 318.000 1.000
31.800 318.000 1.000
31.810 314.000 1.000
31.820 324.000 1.000
31.830 341.000 1.000
31.840 324.000 1.000
31.850 339.000 1.000
31.860 344.000 1.000
31.870 313.000 1.000
31.880 317.000 1.000
31.890 324.000 1.000
31.900 310.000 1.000
31.910 306.000 1.000
31.920 287.000 1.000
31.930 293.000 1.000
31.940 313.000 1.000
31.950 270.000 1.000
31.960 271.000 1.000
31.970 283.000 1.000
31.980 282.000 1.000
31.990 280.000 1.000
32.000 273.000 1.000
32.010 270.000 1.000
32.020 254.000 1.000
32.030 250.000 1.000
32.040 263.000 1.000
32.050 252.000 1.000
32.060 253.000 1.000
32.070 255.000 1.000
32.080 236.000 1.000
32.090 254.000 1.000
32.100 225.000 1.000
32.110 227.000 1.000
32.120 233.000 1.000
32.130 239.000 1.000
32.140 242.000 1.000
32.150 246.000 1.000
32.160 239.000 1.000
32.170 269.000 1.000
32.180 257.000 1.000
32.190 262.000 1.000
32.200 259.000 1.000
32.210 245.000 1.000
32.220 256.000 1.000
32.230 257.000 1.000
32.240 246.000 1.000
32.250 258.000 1.000
32.260 253.000 1.000
32.270 264.000 1.000
32.280 261.000 1.000
32.290 252.000 1.000
32.300 259.000 1.000
32.310 253.000 1.000
32.320 251.000 1.000
32.330 225.000 1.000
32.340 243.000 1.000
32.350 247.000 1.000
32.360 237.000 1.000
32.370 246.000 1.000
32.380 239.000 1.000
32.390 229.000 1.000
32.400 216.000 1.000
32.410 238.000 1.000
32.420 229.000 1.000
32.430 228.000 1.000
32.440 229.000 1.000
32.450 228.000 1.000
32.460 228.000 1.000
32.470 223.000 1.000
32.480 232.000 1.000
32.490 241.000 1.000
32.500 235.000 1.000
32.510 238.000 1.000
32.520 223.000 1.000
32.530 224.000 1.000
32.540 241.000 1.000
32.550 233.000 1.000
32.560 217.000 1.000
32.570 243.000 1.000
32.580 248.000 1.000
32.590 233.000 1.000
32.600 211.000 1.000
32.610 214.000 1.000
32.620 240.000 1.000
32.630 236.000 1.000
32.640 229.000 1.000
32.650 220.000 1.000
32.660 230.000 1.000
32.670 239.000 1.000
32.680 239.000 1.000
32.690 245.000 1.000
32.700 227.000 1.000
32.710 230.000 1.000
32.720 238.000 1.000
32.730 245.000 1.000
32.740 259.000 1.000
32.750 260.000 1.000
32.760 260.000 1.000
32.770 256.000 1.000
32.780 269.000 1.000
32.790 259.000 1.000
32.800 290.000 1.000
32.810 293.000 1.000
32.820 326.000 1.000
32.830 304.000 1.000
32.840 323.000 1.000
32.850 326.000 1.000
32.860 319.000 1.000
32.870 334.000 1.000
32.880 332.000 1.000
32.890 315.000 1.000
32.900 334.000 1.000
32.910 345.000 1.000
32.920 340.000 1.000
32.930 326.000 1.000
32.940 333.000 1.000
32.950 354.000 1.000
32.960 347.000 1.000
32.970 324.000 1.000
32.980 304.000 1.000
32.990 311.000 1.000
33.000 297.000 1.000
33.010 289.000 1.000
33.020 280.000 1.000
33.030 291.000 1.000
33.040 287.000 1.000
33.050 282.000 1.000
33.060 307.000 1.000
33.070 318.000 1.000
33.080 301.000 1.000
33.090 284.000 1.000
33.100 286.000 1.000
33.110 290.000 1.000
33.120 295.000 1.000
33.130 291.000 1.000
33.140 278.000 1.000
33.150 283.000 1.000
33.160 280.000 1.000
33.170 273.000 1.000
33.180 271.000 1.000
33.190 267.000 1.000
33.200 295.000 1.000
33.210 297.000 1.000
33.220 300.000 1.000
33.230 287.000 1.000
33.240 272.000 1.000
33.250 284.000 1.000
33.260 270.000 1.000
33.270 252.000 1.000
33.280 262.000 1.000
33.290 274.000 1.000
33.300 259.000 1.000
33.310 265.000 1.000
33.320 262.000 1.000
33.330 246.000 1.000
33.340 268.000 1.000
33.350 250.000 1.000
33.360 217.000 1.000
33.370 224.000 1.000
33.380 244.000 1.000
33.390 243.000 1.000
33.400 254.000 1.000
33.410 258.000 1.000
33.420 235.000 1.000
33.430 226.000 1.000
33.440 242.000 1.000
33.450 244.000 1.000
33.460 247.000 1.000
33.470 229.000 1.000
33.480 233.000 1.000
33.490 211.000 1.000
33.500 212.000 1.000
33.510 226.000 1.000
33.520 243.000 1.000
33.530 243.000 1.000
33.540 251.000 1.000
33.550 260.000 1.000
33.560 256.000 1.000
33.570 238.000 1.000
33.580 226.000 1.000
33.590 231.000 1.000
33.600 252.000 1.000
33.610 256.000 1.000
33.620 240.000 1.000
33.630 202.000 1.000
33.640 221.000 1.000
33.650 234.000 1.000
33.660 226.000 1.000
33.670 227.000 1.000
33.680 243.000 1.000
33.690 247.000 1.000
33.700 259.000 1.000
33.710 251.000 1.000
33.720 248.000 1.000
33.730 250.000 1.000
33.740 255.000 1.000
33.750 251.000 1.000
33.760 242.000 1.000
33.770 251.000 1.000
33.780 274.000 1.000
33.790 288.000 1.000
33.800 285.000 1.000
33.810 305.000 1.000
33.820 284.000 1.000
33.830 313.000 1.000
33.840 304.000 1.000
33.850 286.000 1.000
33.860 315.000 1.000
33.870 333.000 1.000
33.880 316.000 1.000
33.890 322.000 1.000
33.900 351.000 1.000
33.910 341.000 1.000
33.920 337.000 1.000
33.930 326.000 1.000
33.940 330.000 1.000
33.950 324.000 1.000
33.960 323.000 1.000
33.970 324.000 1.000
33.980 324.000 1.000
33.990 320.000 1.000
34.000 309.000 1.000
34.010 318.000 1.000
34.020 312.000 1.000
34.030 300.000 1.000
34.040 281.000 1.000
34.050 286.000 1.000
34.060 270.000 1.000
34.070 267.000 1.000
34.080 287.000 1.000
34.090 293.000 1.000
34.100 294.000 1.000
34.110 293.000 1.000
34.120 281.000 1.000
34.130 259.000 1.000
34.140 261.000 1.000
34.150 274.000 1.000
34.160 267.000 1.000
34.170 254.000 1.000
34.180 252.000 1.000
34.190 266.000 1.000
34.200 257.000 1.000
34.210 252.000 1.000
34.220 252.000 1.000
34.230 253.000 1.000
34.240 267.000 1.000
34.250 260.000 1.000
34.260 275.000 1.000
34.270 238.000 1.000
34.280 277.000 1.000
34.290 256.000 1.000
34.300 292.000 1.000
34.310 274.000 1.000
34.320 263.000 1.000
34.330 288.000 1.000
34.340 298.000 1.000
34.350 271.000 1.000
34.360 271.000 1.000
34.370 255.000 1.000
34.380 268.000 1.000
34.390 273.000 1.000
34.400 262.000 1.000
34.410 263.000 1.000
34.420 265.000 1.000
34.430 271.000 1.000
34.440 258.000 1.000
34.450 242.000 1.000
34.460 248.000 1.000
34.470 260.000 1.000
34.480 235.000 1.000
34.490 254.000 1.000
34.500 253.000 1.000
34.510 242.000 1.000
34.520 228.000 1.000
34.530 246.000 1.000
34.540 239.000 1.000
34.550 247.000 1.000
34.560 234.000 1.000
34.570 202.000 1.000
34.580 209.000 1.000
34.590 224.000 1.000
34.600 221.000 1.000
34.610 221.000 1.000
34.620 215.000 1.000
34.630 229.000 1.000
34.640 213.000 1.000
34.650 198.000 1.000
34.660 212.000 1.000
34.670 210.000 1.000
34.680 212.000 1.000
34.690 217.000 1.000
34.700 216.000 1.000
34.710 214.000 1.000
34.720 221.000 1.000
34.730 220.000 1.000
34.740 221.000 1.000
34.750 224.000 1.000
34.760 223.000 1.000
34.770 208.000 1.000
34.780 200.000 1.000
34.790 200.000 1.000
34.800 201.000 1.000
34.810 213.000 1.000
34.820 212.000 1.000
34.830 215.000 1.000
34.840 212.000 1.000
34.850 217.000 1.000
34.860 210.000 1.000
34.870 198.000 1.000
34.880 216.000 1.000
34.890 219.000 1.000
34.900 206.000 1.000
34.910 200.000 1.000
34.920 208.000 1.000
34.930 243.000 1.000
34.940 217.000 1.000
34.950 205.000 1.000
34.960 205.000 1.000
34.970 209.000 1.000
34.980 207.000 1.000
34.990 200.000 1.000
35.000 214.000 1.000
35.010 227.000 1.000
35.020 231.000 1.000
35.030 224.000 1.000
35.040 222.000 1.000
35.050 228.000 1.000
35.060 224.000 1.000
35.070 225.000 1.000
35.080 215.000 1.000
35.090 215.000 1.000
35.100 223.000 1.000
35.110 235.000 1.000
35.120 232.000 1.000
35.130 224.000 1.000
35.140 218.000 1.000
35.150 231.000 1.000
35.160 253.000 1.000
35.170 258.000 1.000
35.180 260.000 1.000
35.190 231.000 1.000
35.200 231.000 1.000
35.210 259.000 1.000
35.220 260.000 1.000
35.230 256.000 1.000
35.240 269.000 1.000
35.250 275.000 1.000
35.260 261.000 1.000
35.270 254.000 1.000
35.280 247.000 1.000
35.290 260.000 1.000
35.300 252.000 1.000
35.310 250.000 1.000
35.320 256.000 1.000
35.330 248.000 1.000
35.340 248.000 1.000
35.350 253.000 1.000
35.360 279.000 1.000
35.370 263.000 1.000
35.380 225.000 1.000
35.390 233.000 1.000
35.400 249.000 1.000
35.410 238.000 1.000
35.420 242.000 1.000
35.430 236.000 1.000
35.440 228.000 1.000
35.450 234.000 1.000
35.460 216.000 1.000
35.470 227.000 1.000
35.480 253.000 1.000
35.490 235.000 1.000
35.500 217.000 1.000
35.510 236.000 1.000
35.520 222.000 1.000
35.530 203.000 1.000
35.540 218.000 1.000
35.550 208.000 1.000
35.560 221.000 1.000
35.570 235.000 1.000
35.580 222.000 1.000
35.590 224.000 1.000
35.600 213.000 1.000
35.610 201.000 1.000
35.620 227.000 1.000
35.630 232.000 1.000
35.640 211.000 1.000
35.650 202.000 1.000
35.660 200.000 1.000
35.670 205.000 1.000
35.680 204.000 1.000
35.690 220.000 1.000
35.700 219.000 1.000
35.710 229.000 1.000
35.720 201.000 1.000
35.730 212.000 1.000
35.740 204.000 1.000
35.750 208.000 1.000
35.760 199.000 1.000
35.770 204.000 1.000
35.780 194.000 1.000
35.790 199.000 1.000
35.800 206.000 1.000
35.810 214.000 1.000
35.820 200.000 1.000
35.830 210.000 1.000
35.840 217.000 1.000
35.850 208.000 1.000
35.860 218.000 1.000
35.870 229.000 1.000
35.880 219.000 1.000
35.890 216.000 1.000
35.900 221.000 1.000
35.910 210.000 1.000
35.920 221.000 1.000
35.930 235.000 1.000
35.940 235.000 1.000
35.950 235.000 1.000
35.960 234.000 1.000
35.970 244.000 1.000
35.980 213.000 1.000
35.990 234.000 1.000
36.000 253.000 1.000
36.010 266.000 1.000
36.020 260.000 1.000
36.030 260.000 1.000
36.040 251.000 1.000
36.050 263.000 1.000
36.060 279.000 1.000
36.070 268.000 1.000
36.080 260.000 1.000
36.090 276.000 1.000
36.100 279.000 1.000
36.110 314.000 1.000
36.120 304.000 1.000
36.130 323.000 1.000
36.140 340.000 1.000
36.150 342.000 1.000
36.160 329.000 1.000
36.170 317.000 1.000
36.180 309.000 1.000
36.190 327.000 1.000
36.200 335.000 1.000
36.210 347.000 1.000
36.220 357.000 1.000
36.230 363.000 1.000
36.240 348.000 1.000
36.250 325.000 1.000
36.260 331.000 1.000
36.270 330.000 1.000
36.280 346.000 1.000
36.290 327.000 1.000
36.300 312.000 1.000
36.310 317.000 1.000
36.320 321.000 1.000
36.330 319.000 1.000
36.340 310.000 1.000
36.350 286.000 1.000
36.360 307.000 1.000
36.370 287.000 1.000
36.380 283.000 1.000
36.390 282.000 1.000
36.400 262.000 1.000
36.410 272.000 1.000
36.420 252.000 1.000
36.430 251.000 1.000
36.440 278.000 1.000
36.450 263.000 1.000
36.460 256.000 1.000
36.470 235.000 1.000
36.480 250.000 1.000
36.490 243.000 1.000
36.500 231.000 1.000
36.510 249.000 1.000
36.520 246.000 1.000
36.530 232.000 1.000
36.540 259.000 1.000
36.550 244.000 1.000
36.560 242.000 1.000
36.570 252.000 1.000
36.580 230.000 1.000
36.590 244.000 1.000
36.600 244.000 1.000
36.610 244.000 1.000
36.620 235.000 1.000
36.630 235.000 1.000
36.640 221.000 1.000
36.650 238.000 1.000
36.660 227.000 1.000
36.670 238.000 1.000
36.680 254.000 1.000
36.690 237.000 1.000
36.700 233.000 1.000
36.710 238.000 1.000
36.720 261.000 1.000
36.730 229.000 1.000
36.740 209.000 1.000
36.750 240.000 1.000
36.760 268.000 1.000
36.770 216.000 1.000
36.780 212.000 1.000
36.790 218.000 1.000
36.800 227.000 1.000
36.810 220.000 1.000
36.820 209.000 1.000
36.830 229.000 1.000
36.840 230.000 1.000
36.850 218.000 1.000
36.860 236.000 1.000
36.870 241.000 1.000
36.880 221.000 1.000
36.890 231.000 1.000
36.900 215.000 1.000
36.910 204.000 1.000
36.920 222.000 1.000
36.930 199.000 1.000
36.940 204.000 1.000
36.950 204.000 1.000
36.960 203.000 1.000
36.970 201.000 1.000
36.980 219.000 1.000
36.990 216.000 1.000
37.000 195.000 1.000
37.010 214.000 1.000
37.020 212.000 1.000
37.030 207.000 1.000
37.040 207.000 1.000
37.050 204.000 1.000
37.060 204.000 1.000
37.070 208.000 1.000
37.080 192.000 1.000
37.090 206.000 1.000
37.100 238.000 1.000
37.110 236.000 1.000
37.120 227.000 1.000
37.130 219.000 1.000
37.140 216.000 1.000
37.150 230.000 1.000
37.160 217.000 1.000
37.170 207.000 1.000
37.180 205.000 1.000
37.190 198.000 1.000
37.200 211.000 1.000
37.210 234.000 1.000
37.220 209.000 1.000
37.230 224.000 1.000
37.240 207.000 1.000
37.250 202.000 1.000
37.260 205.000 1.000
37.270 193.000 1.000
37.280 203.000 1.000
37.290 201.000 1.000
37.300 195.000 1.000
37.310 210.000 1.000
37.320 225.000 1.000
37.330 226.000 1.000
37.340 196.000 1.000
37.350 193.000 1.000
37.360 199.000 1.000
37.370 204.000 1.000
37.380 204.000 1.000
37.390 189.000 1.000
37.400 190.000 1.000
37.410 200.000 1.000
37.420 209.000 1.000
37.430 226.000 1.000
37.440 213.000 1.000
37.450 203.000 1.000
37.460 198.000 1.000
37.470 203.000 1.000
37.480 209.000 1.000
37.490 200.000 1.000
37.500 201.000 1.000
37.510 200.000 1.000
37.520 195.000 1.000
37.530 192.000 1.000
37.540 211.000 1.000
37.550 222.000 1.000
37.560 213.000 1.000
37.570 205.000 1.000
37.580 197.000 1.000
37.590 213.000 1.000
37.600 230.000 1.000
37.610 228.000 1.000
37.620 209.000 1.000
37.630 211.000 1.000
37.640 203.000 1.000
37.650 218.000 1.000
37.660 207.000 1.000
37.670 202.000 1.000
37.680 215.000 1.000
37.690 214.000 1.000
37.700 219.000 1.000
37.710 220.000 1.000
37.720 235.000 1.000
37.730 236.000 1.000
37.740 227.000 1.000
37.750 229.000 1.000
37.760 235.000 1.000
37.770 238.000 1.000
37.780 259.000 1.000
37.790 243.000 1.000
37.800 249.000 1.000
37.810 243.000 1.000
37.820 242.000 1.000
37.830 238.000 1.000
37.840 251.000 1.000
37.850 257.000 1.000
37.860 261.000 1.000
37.870 258.000 1.000
37.880 269.000 1.000
37.890 262.000 1.000
37.900 271.000 1.000
37.910 293.000 1.000
37.920 303.000 1.000
37.930 302.000 1.000
37.940 323.000 1.000
37.950 333.000 1.000
37.960 323.000 1.000
37.970 307.000 1.000
37.980 298.000 1.000
37.990 307.000 1.000
38.000 316.000 1.000
38.010 305.000 1.000
38.020 326.000 1.000
38.030 323.000 1.000
38.040 314.000 1.000
38.050 327.000 1.000
38.060 298.000 1.000
38.070 285.000 1.000
38.080 278.000 1.000
38.090 280.000 1.000
38.100 304.000 1.000
38.110 279.000 1.000
38.120 258.000 1.000
38.130 249.000 1.000
38.140 256.000 1.000
38.150 271.000 1.000
38.160 276.000 1.000
38.170 271.000 1.000
38.180 270.000 1.000
38.190 267.000 1.000
38.200 250.000 1.000
38.210 242.000 1.000
38.220 240.000 1.000
38.230 244.000 1.000
38.240 230.000 1.000
38.250 246.000 1.000
38.260 228.000 1.000
38.270 238.000 1.000
38.280 223.000 1.000
38.290 243.000 1.000
38.300 226.000 1.000
38.310 215.000 1.000
38.320 194.000 1.000
38.330 217.000 1.000
38.340 207.000 1.000
38.350 210.000 1.000
38.360 203.000 1.000
38.370 199.000 1.000
38.380 196.000 1.000
38.390 188.000 1.000
38.400 184.000 1.000
38.410 186.000 1.000
38.420 201.000 1.000
38.430 202.000 1.000
38.440 209.000 1.000
38.450 212.000 1.000
38.460 174.000 1.000
38.470 207.000 1.000
38.480 193.000 1.000
38.490 186.000 1.000
38.500 200.000 1.000
38.510 219.000 1.000
38.520 218.000 1.000
38.530 208.000 1.000
38.540 209.000 1.000
38.550 199.000 1.000
38.560 201.000 1.000
38.570 191.000 1.000
38.580 195.000 1.000
38.590 215.000 1.000
38.600 215.000 1.000
38.610 195.000 1.000
38.620 200.000 1.000
38.630 205.000 1.000
38.640 196.000 1.000
38.650 180.000 1.000
38.660 189.000 1.000
38.670 225.000 1.000
38.680 204.000 1.000
38.690 204.000 1.000
38.700 198.000 1.000
38.710 215.000 1.000
38.720 189.000 1.000
38.730 198.000 1.000
38.740 212.000 1.000
38.750 216.000 1.000
38.760 217.000 1.000
38.770 215.000 1.000
38.780 206.000 1.000
38.790 201.000 1.000
38.800 181.000 1.000
38.810 194.000 1.000
38.820 199.000 1.000
38.830 206.000 1.000
38.840 194.000 1.000
38.850 183.000 1.000
38.860 199.000 1.000
38.870 207.000 1.000
38.880 215.000 1.000
38.890 191.000 1.000
38.900 183.000 1.000
38.910 193.000 1.000
38.920 175.000 1.000
38.930 187.000 1.000
38.940 188.000 1.000
38.950 202.000 1.000
38.960 194.000 1.000
38.970 203.000 1.000
38.980 200.000 1.000
38.990 197.000 1.000
39.000 210.000 1.000
39.010 222.000 1.000
39.020 219.000 1.000
39.030 224.000 1.000
39.040 229.000 1.000
39.050 213.000 1.000
39.060 209.000 1.000
39.070 213.000 1.000
39.080 225.000 1.000
39.090 205.000 1.000
39.100 202.000 1.000
39.110 203.000 1.000
39.120 207.000 1.000
39.130 207.000 1.000
39.140 218.000 1.000
39.150 222.000 1.000
39.160 210.000 1.000
39.170 216.000 1.000
39.180 227.000 1.000
39.190 200.000 1.000
39.200 191.000 1.000
39.210 207.000 1.000
39.220 200.000 1.000
39.230 194.000 1.000
39.240 190.000 1.000
39.250 200.000 1.000
39.260 217.000 1.000
39.270 219.000 1.000
39.280 198.000 1.000
39.290 222.000 1.000
39.300 210.000 1.000
39.310 199.000 1.000
39.320 197.000 1.000
39.330 212.000 1.000
39.340 220.000 1.000
39.350 213.000 1.000
39.360 220.000 1.000
39.370 219.000 1.000
39.380 236.000 1.000
39.390 217.000 1.000
39.400 211.000 1.000
39.410 218.000 1.000
39.420 211.000 1.000
39.430 228.000 1.000
39.440 235.000 1.000
39.450 225.000 1.000
39.460 231.000 1.000
39.470 235.000 1.000
39.480 261.000 1.000
39.490 243.000 1.000
39.500 238.000 1.000
39.510 234.000 1.000
39.520 234.000 1.000
39.530 225.000 1.000
39.540 220.000 1.000
39.550 227.000 1.000
39.560 229.000 1.000
39.570 218.000 1.000
39.580 242.000 1.000
39.590 239.000 1.000
39.600 243.000 1.000
39.610 212.000 1.000
39.620 216.000 1.000
39.630 225.000 1.000
39.640 226.000 1.000
39.650 216.000 1.000
39.660 215.000 1.000
39.670 238.000 1.000
39.680 223.000 1.000
39.690 190.000 1.000
39.700 195.000 1.000
39.710 199.000 1.000
39.720 189.000 1.000
39.730 202.000 1.000
39.740 197.000 1.000
39.750 206.000 1.000
39.760 209.000 1.000
39.770 206.000 1.000
39.780 215.000 1.000
39.790 208.000 1.000
39.800 195.000 1.000
39.810 202.000 1.000
39.820 217.000 1.000
39.830 232.000 1.000
39.840 210.000 1.000
39.850 216.000 1.000
39.860 221.000 1.000
39.870 216.000 1.000
39.880 215.000 1.000
39.890 200.000 1.000
39.900 190.000 1.000
39.910 210.000 1.000
39.920 208.000 1.000
39.930 187.000 1.000
39.940 191.000 1.000
39.950 206.000 1.000
39.960 197.000 1.000
39.970 184.000 1.000
39.980 191.000 1.000
39.990 201.000 1.000
40.000 203.000 1.000
40.010 203.000 1.000
40.020 199.000 1.000
40.030 219.000 1.000
40.040 222.000 1.000
40.050 224.000 1.000
40.060 223.000 1.000
40.070 222.000 1.000
40.080 207.000 1.000
40.090 204.000 1.000
40.100 204.000 1.000
40.110 208.000 1.000
40.120 212.000 1.000
40.130 203.000 1.000
40.140 198.000 1.000
40.150 193.000 1.000
40.160 198.000 1.000
40.170 207.000 1.000
40.180 200.000 1.000
40.190 214.000 1.000
40.200 260.000 1.000
40.210 232.000 1.000
40.220 237.000 1.000
40.230 230.000 1.000
40.240 236.000 1.000
40.250 207.000 1.000
40.260 230.000 1.000
40.270 239.000 1.000
40.280 238.000 1.000
40.290 243.000 1.000
40.300 249.000 1.000
40.310 259.000 1.000
40.320 255.000 1.000
40.330 265.000 1.000
40.340 258.000 1.000
40.350 252.000 1.000
40.360 255.000 1.000
40.370 257.000 1.000
40.380 245.000 1.000
40.390 244.000 1.000
40.400 225.000 1.000
40.410 254.000 1.000
40.420 273.000 1.000
40.430 264.000 1.000
40.440 296.000 1.000
40.450 323.000 1.000
40.460 295.000 1.000
40.470 276.000 1.000
40.480 269.000 1.000
40.490 279.000 1.000
40.500 337.000 1.000
40.510 334.000 1.000
40.520 309.000 1.000
40.530 315.000 1.000
40.540 325.000 1.000
40.550 314.000 1.000
40.560 313.000 1.000
40.570 320.000 1.000
40.580 306.000 1.000
40.590 335.000 1.000
40.600 345.000 1.000
40.610 356.000 1.000
40.620 323.000 1.000
40.630 325.000 1.000
40.640 344.000 1.000
40.650 342.000 1.000
40.660 353.000 1.000
40.670 316.000 1.000
40.680 308.000 1.000
40.690 313.000 1.000
40.700 334.000 1.000
40.710 323.000 1.000
40.720 293.000 1.000
40.730 288.000 1.000
40.740 305.000 1.000
40.750 316.000 1.000
40.760 294.000 1.000
40.770 281.000 1.000
40.780 277.000 1.000
40.790 290.000 1.000
40.800 295.000 1.000
40.810 255.000 1.000
40.820 258.000 1.000
40.830 254.000 1.000
40.840 262.000 1.000
40.850 255.000 1.000
40.860 254.000 1.000
40.870 241.000 1.000
40.880 258.000 1.000
40.890 248.000 1.000
40.900 247.000 1.000
40.910 232.000 1.000
40.920 242.000 1.000
40.930 260.000 1.000
40.940 235.000 1.000
40.950 236.000 1.000
40.960 245.000 1.000
40.970 241.000 1.000
40.980 257.000 1.000
40.990 256.000 1.000
41.000 260.000 1.000
41.010 250.000 1.000
41.020 272.000 1.000
41.030 250.000 1.000
41.040 278.000 1.000
41.050 268.000 1.000
41.060 254.000 1.000
41.070 241.000 1.000
41.080 273.000 1.000
41.090 289.000 1.000
41.100 292.000 1.000
41.110 289.000 1.000
41.120 290.000 1.000
41.130 306.000 1.000
41.140 352.000 1.000
41.150 340.000 1.000
41.160 322.000 1.000
41.170 326.000 1.000
41.180 338.000 1.000
41.190 346.000 1.000
41.200 345.000 1.000
41.210 336.000 1.000
41.220 335.000 1.000
41.230 316.000 1.000
41.240 333.000 1.000
41.250 351.000 1.000
41.260 337.000 1.000
41.270 308.000 1.000
41.280 337.000 1.000
41.290 321.000 1.000
41.300 301.000 1.000
41.310 301.000 1.000
41.320 297.000 1.000
41.330 307.000 1.000
41.340 308.000 1.000
41.350 290.000 1.000
41.360 295.000 1.000
41.370 283.000 1.000
41.380 260.000 1.000
41.390 265.000 1.000
41.400 262.000 1.000
41.410 268.000 1.000
41.420 283.000 1.000
41.430 266.000 1.000
41.440 262.000 1.000
41.450 283.000 1.000
41.460 283.000 1.000
41.470 259.000 1.000
41.480 239.000 1.000
41.490 248.000 1.000
41.500 277.000 1.000
41.510 278.000 1.000
41.520 267.000 1.000
41.530 252.000 1.000
41.540 242.000 1.000
41.550 257.000 1.000
41.560 262.000 1.000
41.570 251.000 1.000
41.580 250.000 1.000
41.590 252.000 1.000
41.600 241.000 1.000
41.610 246.000 1.000
41.620 238.000 1.000
41.630 234.000 1.000
41.640 267.000 1.000
41.650 240.000 1.000
41.660 244.000 1.000
41.670 229.000 1.000
41.680 262.000 1.000
41.690 255.000 1.000
41.700 241.000 1.000
41.710 237.000 1.000
41.720 228.000 1.000
41.730 246.000 1.000
41.740 242.000 1.000
41.750 227.000 1.000
41.760 219.000 1.000
41.770 214.000 1.000
41.780 207.000 1.000
41.790 228.000 1.000
41.800 235.000 1.000
41.810 228.000 1.000
41.820 210.000 1.000
41.830 229.000 1.000
41.840 217.000 1.000
41.850 222.000 1.000
41.860 214.000 1.000
41.870 220.000 1.000
41.880 218.000 1.000
41.890 244.000 1.000
41.900 234.000 1.000
41.910 237.000 1.000
41.920 217.000 1.000
41.930 238.000 1.000
41.940 252.000 1.000
41.950 239.000 1.000
41.960 238.000 1.000
41.970 229.000 1.000
41.980 233.000 1.000
41.990 236.000 1.000
42.000 233.000 1.000
42.010 232.000 1.000
42.020 227.000 1.000
42.030 253.000 1.000
42.040 261.000 1.000
42.050 241.000 1.000
42.060 249.000 1.000
42.070 255.000 1.000
42.080 235.000 1.000
42.090 268.000 1.000
42.100 266.000 1.000
42.110 240.000 1.000
42.120 243.000 1.000
42.130 258.000 1.000
42.140 232.000 1.000
42.150 246.000 1.000
42.160 249.000 1.000
42.170 237.000 1.000
42.180 226.000 1.000
42.190 226.000 1.000
42.200 235.000 1.000
42.210 223.000 1.000
42.220 237.000 1.000
42.230 249.000 1.000
42.240 253.000 1.000
42.250 230.000 1.000
42.260 252.000 1.000
42.270 271.000 1.000
42.280 275.000 1.000
42.290 237.000 1.000
42.300 254.000 1.000
42.310 254.000 1.000
42.320 255.000 1.000
42.330 262.000 1.000
42.340 274.000 1.000
42.350 276.000 1.000
42.360 288.000 1.000
42.370 258.000 1.000
42.380 247.000 1.000
42.390 269.000 1.000
42.400 283.000 1.000
42.410 281.000 1.000
42.420 261.000 1.000
42.430 260.000 1.000
42.440 283.000 1.000
42.450 276.000 1.000
42.460 271.000 1.000
42.470 259.000 1.000
42.480 257.000 1.000
42.490 261.000 1.000
42.500 258.000 1.000
42.510 245.000 1.000
42.520 250.000 1.000
42.530 275.000 1.000
42.540 229.000 1.000
42.550 242.000 1.000
42.560 252.000 1.000
42.570 257.000 1.000
42.580 274.000 1.000
42.590 240.000 1.000
42.600 231.000 1.000
42.610 227.000 1.000
42.620 234.000 1.000
42.630 245.000 1.000
42.640 225.000 1.000
42.650 210.000 1.000
42.660 238.000 1.000
42.670 240.000 1.000
42.680 231.000 1.000
42.690 240.000 1.000
42.700 243.000 1.000
42.710 235.000 1.000
42.720 235.000 1.000
42.730 247.000 1.000
42.740 247.000 1.000
42.750 257.000 1.000
42.760 253.000 1.000
42.770 261.000 1.000
42.780 271.000 1.000
42.790 246.000 1.000
42.800 244.000 1.000
42.810 237.000 1.000
42.820 245.000 1.000
42.830 249.000 1.000
42.840 248.000 1.000
42.850 273.000 1.000
42.860 279.000 1.000
42.870 276.000 1.000
42.880 280.000 1.000
42.890 263.000 1.000
42.900 271.000 1.000
42.910 246.000 1.000
42.920 276.000 1.000
42.930 257.000 1.000
42.940 257.000 1.000
42.950 273.000 1.000
42.960 288.000 1.000
42.970 269.000 1.000
42.980 237.000 1.000
42.990 266.000 1.000
43.000 275.000 1.000
43.010 259.000 1.000
43.020 249.000 1.000
43.030 238.000 1.000
43.040 237.000 1.000
43.050 233.000 1.000
43.060 244.000 1.000
43.070 242.000 1.000
43.080 235.000 1.000
43.090 242.000 1.000
43.100 212.000 1.000
43.110 221.000 1.000
43.120 243.000 1.000
43.130 235.000 1.000
43.140 267.000 1.000
43.150 284.000 1.000
43.160 245.000 1.000
43.170 237.000 1.000
43.180 253.000 1.000
43.190 233.000 1.000
43.200 237.000 1.000
43.210 240.000 1.000
43.220 228.000 1.000
43.230 252.000 1.000
43.240 249.000 1.000
43.250 258.000 1.000
43.260 268.000 1.000
43.270 272.000 1.000
43.280 266.000 1.000
43.290 263.000 1.000
43.300 284.000 1.000
43.310 281.000 1.000
43.320 258.000 1.000
43.330 280.000 1.000
43.340 253.000 1.000
43.350 263.000 1.000
43.360 276.000 1.000
43.370 255.000 1.000
43.380 244.000 1.000
43.390 275.000 1.000
43.400 258.000 1.000
43.410 267.000 1.000
43.420 267.000 1.000
43.430 266.000 1.000
43.440 258.000 1.000
43.450 270.000 1.000
43.460 251.000 1.000
43.470 241.000 1.000
43.480 235.000 1.000
43.490 231.000 1.000
43.500 228.000 1.000
43.510 232.000 1.000
43.520 212.000 1.000
43.530 238.000 1.000
43.540 228.000 1.000
43.550 227.000 1.000
43.560 230.000 1.000
43.570 221.000 1.000
43.580 230.000 1.000
43.590 225.000 1.000
43.600 235.000 1.000
43.610 240.000 1.000
43.620 217.000 1.000
43.630 213.000 1.000
43.640 210.000 1.000
43.650 227.000 1.000
43.660 239.000 1.000
43.670 238.000 1.000
43.680 231.000 1.000
43.690 221.000 1.000
43.700 200.000 1.000
43.710 201.000 1.000
43.720 213.000 1.000
43.730 214.000 1.000
43.740 207.000 1.000
43.750 206.000 1.000
43.760 224.000 1.000
43.770 226.000 1.000
43.780 217.000 1.000
43.790 205.000 1.000
43.800 216.000 1.000
43.810 217.000 1.000
43.820 228.000 1.000
43.830 228.000 1.000
43.840 237.000 1.000
43.850 258.000 1.000
43.860 249.000 1.000
43.870 240.000 1.000
43.880 237.000 1.000
43.890 228.000 1.000
43.900 219.000 1.000
43.910 228.000 1.000
43.920 223.000 1.000
43.930 233.000 1.000
43.940 230.000 1.000
43.950 210.000 1.000
43.960 223.000 1.000
43.970 238.000 1.000
43.980 225.000 1.000
43.990 214.000 1.000
44.000 223.000 1.000
44.010 242.000 1.000
44.020 249.000 1.000
44.030 226.000 1.000
44.040 208.000 1.000
44.050 235.000 1.000
44.060 228.000 1.000
44.070 213.000 1.000
44.080 203.000 1.000
44.090 217.000 1.000
44.100 229.000 1.000
44.110 225.000 1.000
44.120 240.000 1.000
44.130 242.000 1.000
44.140 231.000 1.000
44.150 236.000 1.000
44.160 251.000 1.000
44.170 234.000 1.000
44.180 234.000 1.000
44.190 240.000 1.000
44.200 248.000 1.000
44.210 254.000 1.000
44.220 221.000 1.000
44.230 233.000 1.000
44.240 254.000 1.000
44.250 256.000 1.000
44.260 248.000 1.000
44.270 251.000 1.000
44.280 258.000 1.000
44.290 258.000 1.000
44.300 271.000 1.000
44.310 281.000 1.000
44.320 263.000 1.000
44.330 245.000 1.000
44.340 265.000 1.000
44.350 291.000 1.000
44.360 294.000 1.000
44.370 272.000 1.000
44.380 294.000 1.000
44.390 279.000 1.000
44.400 281.000 1.000
44.410 272.000 1.000
44.420 283.000 1.000
44.430 265.000 1.000
44.440 275.000 1.000
44.450 273.000 1.000
44.460 274.000 1.000
44.470 282.000 1.000
44.480 281.000 1.000
44.490 256.000 1.000
44.500 248.000 1.000
44.510 252.000 1.000
44.520 265.000 1.000
44.530 265.000 1.000
44.540 245.000 1.000
44.550 250.000 1.000
44.560 239.000 1.000
44.570 219.000 1.000
44.580 234.000 1.000
44.590 243.000 1.000
44.600 247.000 1.000
44.610 247.000 1.000
44.620 245.000 1.000
44.630 243.000 1.000
44.640 231.000 1.000
44.650 215.000 1.000
44.660 236.000 1.000
44.670 236.000 1.000
44.680 224.000 1.000
44.690 221.000 1.000
44.700 215.000 1.000
44.710 213.000 1.000
44.720 215.000 1.000
44.730 216.000 1.000
44.740 201.000 1.000
44.750 193.000 1.000
44.760 219.000 1.000
44.770 218.000 1.000
44.780 199.000 1.000
44.790 219.000 1.000
44.800 220.000 1.000
44.810 224.000 1.000
44.820 213.000 1.000
44.830 206.000 1.000
44.840 207.000 1.000
44.850 194.000 1.000
44.860 203.000 1.000
44.870 217.000 1.000
44.880 202.000 1.000
44.890 207.000 1.000
44.900 217.000 1.000
44.910 225.000 1.000
44.920 220.000 1.000
44.930 221.000 1.000
44.940 213.000 1.000
44.950 219.000 1.000
44.960 209.000 1.000
44.970 217.000 1.000
44.980 222.000 1.000
44.990 218.000 1.000
45.000 198.000 1.000
45.010 191.000 1.000
45.020 186.000 1.000
45.030 205.000 1.000
45.040 221.000 1.000
45.050 213.000 1.000
45.060 206.000 1.000
45.070 213.000 1.000
45.080 217.000 1.000
45.090 206.000 1.000
45.100 210.000 1.000
45.110 204.000 1.000
45.120 210.000 1.000
45.130 214.000 1.000
45.140 217.000 1.000
45.150 220.000 1.000
45.160 213.000 1.000
45.170 211.000 1.000
45.180 208.000 1.000
45.190 205.000 1.000
45.200 206.000 1.000
45.210 202.000 1.000
45.220 204.000 1.000
45.230 205.000 1.000
45.240 201.000 1.000
45.250 215.000 1.000
45.260 199.000 1.000
45.270 200.000 1.000
45.280 201.000 1.000
45.290 207.000 1.000
45.300 225.000 1.000
45.310 233.000 1.000
45.320 232.000 1.000
45.330 206.000 1.000
45.340 207.000 1.000
45.350 201.000 1.000
45.360 209.000 1.000
45.370 207.000 1.000
45.380 216.000 1.000
45.390 225.000 1.000
45.400 206.000 1.000
45.410 209.000 1.000
45.420 233.000 1.000
45.430 230.000 1.000
45.440 202.000 1.000
45.450 186.000 1.000
45.460 206.000 1.000
45.470 208.000 1.000
45.480 215.000 1.000
45.490 227.000 1.000
45.500 217.000 1.000
45.510 227.000 1.000
45.520 210.000 1.000
45.530 217.000 1.000
45.540 204.000 1.000
45.550 199.000 1.000
45.560 203.000 1.000
45.570 228.000 1.000
45.580 212.000 1.000
45.590 200.000 1.000
45.600 197.000 1.000
45.610 209.000 1.000
45.620 215.000 1.000
45.630 217.000 1.000
45.640 213.000 1.000
45.650 210.000 1.000
45.660 208.000 1.000
45.670 194.000 1.000
45.680 219.000 1.000
45.690 197.000 1.000
45.700 208.000 1.000
45.710 218.000 1.000
45.720 219.000 1.000
45.730 202.000 1.000
45.740 208.000 1.000
45.750 214.000 1.000
45.760 211.000 1.000
45.770 203.000 1.000
45.780 204.000 1.000
45.790 197.000 1.000
45.800 210.000 1.000
45.810 197.000 1.000
45.820 209.000 1.000
45.830 230.000 1.000
45.840 214.000 1.000
45.850 209.000 1.000
45.860 219.000 1.000
45.870 193.000 1.000
45.880 199.000 1.000
45.890 218.000 1.000
45.900 222.000 1.000
45.910 235.000 1.000
45.920 216.000 1.000
45.930 222.000 1.000
45.940 222.000 1.000
45.950 232.000 1.000
45.960 227.000 1.000
45.970 215.000 1.000
45.980 218.000 1.000
45.990 204.000 1.000
46.000 203.000 1.000
46.010 220.000 1.000
46.020 222.000 1.000
46.030 211.000 1.000
46.040 221.000 1.000
46.050 214.000 1.000
46.060 205.000 1.000
46.070 196.000 1.000
46.080 208.000 1.000
46.090 238.000 1.000
46.100 233.000 1.000
46.110 221.000 1.000
46.120 218.000 1.000
46.130 239.000 1.000
46.140 234.000 1.000
46.150 210.000 1.000
46.160 222.000 1.000
46.170 220.000 1.000
46.180 246.000 1.000
46.190 240.000 1.000
46.200 230.000 1.000
46.210 249.000 1.000
46.220 257.000 1.000
46.230 244.000 1.000
46.240 253.000 1.000
46.250 241.000 1.000
46.260 253.000 1.000
46.270 269.000 1.000
46.280 269.000 1.000
46.290 267.000 1.000
46.300 271.000 1.000
46.310 272.000 1.000
46.320 277.000 1.000
46.330 261.000 1.000
46.340 278.000 1.000
46.350 277.000 1.000
46.360 266.000 1.000
46.370 270.000 1.000
46.380 294.000 1.000
46.390 286.000 1.000
46.400 265.000 1.000
46.410 287.000 1.000
46.420 289.000 1.000
46.430 283.000 1.000
46.440 293.000 1.000
46.450 314.000 1.000
46.460 317.000 1.000
46.470 294.000 1.000
46.480 291.000 1.000
46.490 298.000 1.000
46.500 301.000 1.000
46.510 294.000 1.000
46.520 318.000 1.000
46.530 321.000 1.000
46.540 313.000 1.000
46.550 291.000 1.000
46.560 275.000 1.000
46.570 291.000 1.000
46.580 288.000 1.000
46.590 284.000 1.000
46.600 286.000 1.000
46.610 288.000 1.000
46.620 265.000 1.000
46.630 276.000 1.000
46.640 296.000 1.000
46.650 278.000 1.000
46.660 241.000 1.000
46.670 270.000 1.000
46.680 262.000 1.000
46.690 241.000 1.000
46.700 261.000 1.000
46.710 268.000 1.000
46.720 265.000 1.000
46.730 250.000 1.000
46.740 273.000 1.000
46.750 254.000 1.000
46.760 245.000 1.000
46.770 253.000 1.000
46.780 242.000 1.000
46.790 240.000 1.000
46.800 251.000 1.000
46.810 231.000 1.000
46.820 237.000 1.000
46.830 233.000 1.000
46.840 232.000 1.000
46.850 228.000 1.000
46.860 222.000 1.000
46.870 221.000 1.000
46.880 211.000 1.000
46.890 222.000 1.000
46.900 231.000 1.000
46.910 222.000 1.000
46.920 230.000 1.000
46.930 221.000 1.000
46.940 234.000 1.000
46.950 224.000 1.000
46.960 218.000 1.000
46.970 232.000 1.000
46.980 234.000 1.000
46.990 232.000 1.000
47.000 216.000 1.000
47.010 235.000 1.000
47.020 215.000 1.000
47.030 229.000 1.000
47.040 230.000 1.000
47.050 246.000 1.000
47.060 234.000 1.000
47.070 230.000 1.000
47.080 227.000 1.000
47.090 231.000 1.000
47.100 224.000 1.000
47.110 212.000 1.000
47.120 227.000 1.000
47.130 247.000 1.000
47.140 242.000 1.000
47.150 251.000 1.000
47.160 224.000 1.000
47.170 226.000 1.000
47.180 247.000 1.000
47.190 239.000 1.000
47.200 228.000 1.000
47.210 249.000 1.000
47.220 231.000 1.000
47.230 245.000 1.000
47.240 261.000 1.000
47.250 246.000 1.000
47.260 235.000 1.000
47.270 236.000 1.000
47.280 241.000 1.000
47.290 243.000 1.000
47.300 231.000 1.000
47.310 229.000 1.000
47.320 247.000 1.000
47.330 251.000 1.000
47.340 223.000 1.000
47.350 225.000 1.000
47.360 220.000 1.000
47.370 249.000 1.000
47.380 252.000 1.000
47.390 250.000 1.000
47.400 228.000 1.000
47.410 240.000 1.000
47.420 230.000 1.000
47.430 238.000 1.000
47.440 243.000 1.000
47.450 253.000 1.000
47.460 260.000 1.000
47.470 265.000 1.000
47.480 270.000 1.000
47.490 278.000 1.000
47.500 270.000 1.000
47.510 269.000 1.000
47.520 261.000 1.000
47.530 263.000 1.000
47.540 265.000 1.000
47.550 284.000 1.000
47.560 298.000 1.000
47.570 280.000 1.000
47.580 267.000 1.000
47.590 280.000 1.000
47.600 284.000 1.000
47.610 288.000 1.000
47.620 298.000 1.000
47.630 292.000 1.000
47.640 289.000 1.000
47.650 301.000 1.000
47.660 298.000 1.000
47.670 295.000 1.000
47.680 288.000 1.000
47.690 304.000 1.000
47.700 302.000 1.000
47.710 295.000 1.000
47.720 296.000 1.000
47.730 294.000 1.000
47.740 305.000 1.000
47.750 295.000 1.000
47.760 277.000 1.000
47.770 301.000 1.000
47.780 282.000 1.000
47.790 287.000 1.000
47.800 279.000 1.000
47.810 283.000 1.000
47.820 294.000 1.000
47.830 282.000 1.000
47.840 286.000 1.000
47.850 280.000 1.000
47.860 278.000 1.000
47.870 292.000 1.000
47.880 271.000 1.000
47.890 277.000 1.000
47.900 276.000 1.000
47.910 248.000 1.000
47.920 273.000 1.000
47.930 276.000 1.000
47.940 250.000 1.000
47.950 264.000 1.000
47.960 254.000 1.000
47.970 252.000 1.000
47.980 229.000 1.000
47.990 233.000 1.000
48.000 224.000 1.000
48.010 260.000 1.000
48.020 260.000 1.000
48.030 225.000 1.000
48.040 217.000 1.000
48.050 217.000 1.000
48.060 196.000 1.000
48.070 212.000 1.000
48.080 248.000 1.000
48.090 234.000 1.000
48.100 210.000 1.000
48.110 229.000 1.000
48.120 229.000 1.000
48.130 223.000 1.000
48.140 217.000 1.000
48.150 209.000 1.000
48.160 197.000 1.000
48.170 219.000 1.000
48.180 210.000 1.000
48.190 204.000 1.000
48.200 220.000 1.000
48.210 229.000 1.000
48.220 212.000 1.000
48.230 207.000 1.000
48.240 210.000 1.000
48.250 196.000 1.000
48.260 208.000 1.000
48.270 189.000 1.000
48.280 191.000 1.000
48.290 196.000 1.000
48.300 222.000 1.000
48.310 221.000 1.000
48.320 203.000 1.000
48.330 210.000 1.000
48.340 199.000 1.000
48.350 183.000 1.000
48.360 188.000 1.000
48.370 203.000 1.000
48.380 219.000 1.000
48.390 217.000 1.000
48.400 193.000 1.000
48.410 194.000 1.000
48.420 190.000 1.000
48.430 215.000 1.000
48.440 222.000 1.000
48.450 217.000 1.000
48.460 229.000 1.000
48.470 219.000 1.000
48.480 209.000 1.000
48.490 194.000 1.000
48.500 214.000 1.000
48.510 206.000 1.000
48.520 194.000 1.000
48.530 199.000 1.000
48.540 220.000 1.000
48.550 212.000 1.000
48.560 191.000 1.000
48.570 194.000 1.000
48.580 218.000 1.000
48.590 228.000 1.000
48.600 223.000 1.000
48.610 217.000 1.000
48.620 214.000 1.000
48.630 194.000 1.000
48.640 201.000 1.000
48.650 203.000 1.000
48.660 229.000 1.000
48.670 212.000 1.000
48.680 216.000 1.000
48.690 227.000 1.000
48.700 211.000 1.000
48.710 213.000 1.000
48.720 210.000 1.000
48.730 207.000 1.000
48.740 212.000 1.000
48.750 212.000 1.000
48.760 222.000 1.000
48.770 208.000 1.000
48.780 200.000 1.000
48.790 208.000 1.000
48.800 209.000 1.000
48.810 225.000 1.000
48.820 205.000 1.000
48.830 210.000 1.000
48.840 216.000 1.000
48.850 212.000 1.000
48.860 226.000 1.000
48.870 221.000 1.000
48.880 206.000 1.000
48.890 216.000 1.000
48.900 214.000 1.000
48.910 212.000 1.000
48.920 201.000 1.000
48.930 213.000 1.000
48.940 222.000 1.000
48.950 230.000 1.000
48.960 208.000 1.000
48.970 197.000 1.000
48.980 191.000 1.000
48.990 196.000 1.000
49.000 206.000 1.000
49.010 202.000 1.000
49.020 201.000 1.000
49.030 219.000 1.000
49.040 216.000 1.000
49.050 218.000 1.000
49.060 194.000 1.000
49.070 199.000 1.000
49.080 214.000 1.000
49.090 210.000 1.000
49.100 211.000 1.000
49.110 197.000 1.000
49.120 198.000 1.000
49.130 209.000 1.000
49.140 199.000 1.000
49.150 179.000 1.000
49.160 195.000 1.000
49.170 213.000 1.000
49.180 212.000 1.000
49.190 215.000 1.000
49.200 207.000 1.000
49.210 204.000 1.000
49.220 197.000 1.000
49.230 193.000 1.000
49.240 194.000 1.000
49.250 195.000 1.000
49.260 208.000 1.000
49.270 202.000 1.000
49.280 202.000 1.000
49.290 206.000 1.000
49.300 212.000 1.000
49.310 228.000 1.000
49.320 229.000 1.000
49.330 226.000 1.000
49.340 234.000 1.000
49.350 205.000 1.000
49.360 192.000 1.000
49.370 203.000 1.000
49.380 207.000 1.000
49.390 216.000 1.000
49.400 208.000 1.000
49.410 202.000 1.000
49.420 225.000 1.000
49.430 217.000 1.000
49.440 229.000 1.000
49.450 221.000 1.000
49.460 202.000 1.000
49.470 178.000 1.000
49.480 197.000 1.000
49.490 173.000 1.000
49.500 190.000 1.000
49.510 199.000 1.000
49.520 224.000 1.000
49.530 233.000 1.000
49.540 219.000 1.000
49.550 213.000 1.000
49.560 204.000 1.000
49.570 211.000 1.000
49.580 215.000 1.000
49.590 206.000 1.000
49.600 207.000 1.000
49.610 203.000 1.000
49.620 201.000 1.000
49.630 211.000 1.000
49.640 208.000 1.000
49.650 183.000 1.000
49.660 200.000 1.000
49.670 197.000 1.000
49.680 182.000 1.000
49.690 196.000 1.000
49.700 201.000 1.000
49.710 215.000 1.000
49.720 221.000 1.000
49.730 224.000 1.000
49.740 194.000 1.000
49.750 186.000 1.000
49.760 187.000 1.000
49.770 197.000 1.000
49.780 211.000 1.000
49.790 209.000 1.000
49.800 202.000 1.000
49.810 189.000 1.000
49.820 197.000 1.000
49.830 201.000 1.000
49.840 182.000 1.000
49.850 194.000 1.000
49.860 210.000 1.000
49.870 212.000 1.000
49.880 205.000 1.000
49.890 224.000 1.000
49.900 225.000 1.000
49.910 201.000 1.000
49.920 216.000 1.000
49.930 220.000 1.000
49.940 200.000 1.000
49.950 213.000 1.000
49.960 211.000 1.000
49.970 215.000 1.000
49.980 220.000 1.000
49.990 221.000 1.000
50.000 237.000 1.000
50.010 214.000 1.000
50.020 209.000 1.000
50.030 206.000 1.000
50.040 210.000 1.000
50.050 244.000 1.000
50.060 244.000 1.000
50.070 223.000 1.000
50.080 216.000 1.000
50.090 209.000 1.000
50.100 228.000 1.000
50.110 225.000 1.000
50.120 232.000 1.000
50.130 239.000 1.000
50.140 234.000 1.000
50.150 240.000 1.000
50.160 223.000 1.000
50.170 215.000 1.000
50.180 226.000 1.000
50.190 235.000 1.000
50.200 230.000 1.000
50.210 214.000 1.000
50.220 215.000 1.000
50.230 215.000 1.000
50.240 209.000 1.000
50.250 191.000 1.000
50.260 226.000 1.000
50.270 248.000 1.000
50.280 229.000 1.000
50.290 219.000 1.000
50.300 207.000 1.000
50.310 205.000 1.000
50.320 207.000 1.000
50.330 198.000 1.000
50.340 201.000 1.000
50.350 202.000 1.000
50.360 201.000 1.000
50.370 203.000 1.000
50.380 211.000 1.000
50.390 201.000 1.000
50.400 208.000 1.000
50.410 193.000 1.000
50.420 188.000 1.000
50.430 211.000 1.000
50.440 212.000 1.000
50.450 196.000 1.000
50.460 196.000 1.000
50.470 203.000 1.000
50.480 224.000 1.000
50.490 216.000 1.000
50.500 220.000 1.000
50.510 234.000 1.000
50.520 207.000 1.000
50.530 224.000 1.000
50.540 198.000 1.000
50.550 215.000 1.000
50.560 209.000 1.000
50.570 212.000 1.000
50.580 225.000 1.000
50.590 204.000 1.000
50.600 196.000 1.000
50.610 207.000 1.000
50.620 237.000 1.000
50.630 236.000 1.000
50.640 228.000 1.000
50.650 222.000 1.000
50.660 235.000 1.000
50.670 242.000 1.000
50.680 233.000 1.000
50.690 235.000 1.000
50.700 210.000 1.000
50.710 207.000 1.000
50.720 231.000 1.000
50.730 210.000 1.000
50.740 212.000 1.000
50.750 222.000 1.000
50.760 227.000 1.000
50.770 224.000 1.000
50.780 212.000 1.000
50.790 215.000 1.000
50.800 210.000 1.000
50.810 226.000 1.000
50.820 245.000 1.000
50.830 253.000 1.000
50.840 211.000 1.000
50.850 210.000 1.000
50.860 209.000 1.000
50.870 199.000 1.000
50.880 204.000 1.000
50.890 210.000 1.000
50.900 207.000 1.000
50.910 211.000 1.000
50.920 211.000 1.000
50.930 211.000 1.000
50.940 217.000 1.000
50.950 216.000 1.000
50.960 213.000 1.000
50.970 203.000 1.000
50.980 205.000 1.000
50.990 199.000 1.000
51.000 199.000 1.000
51.010 209.000 1.000
51.020 204.000 1.000
51.030 206.000 1.000
51.040 193.000 1.000
51.050 199.000 1.000
51.060 182.000 1.000
51.070 191.000 1.000
51.080 198.000 1.000
51.090 204.000 1.000
51.100 213.000 1.000
51.110 205.000 1.000
51.120 199.000 1.000
51.130 199.000 1.000
51.140 192.000 1.000
51.150 193.000 1.000
51.160 178.000 1.000
51.170 213.000 1.000
51.180 221.000 1.000
51.190 201.000 1.000
51.200 200.000 1.000
51.210 192.000 1.000
51.220 207.000 1.000
51.230 192.000 1.000
51.240 201.000 1.000
51.250 193.000 1.000
51.260 191.000 1.000
51.270 198.000 1.000
51.280 190.000 1.000
51.290 190.000 1.000
51.300 203.000 1.000
51.310 192.000 1.000
51.320 186.000 1.000
51.330 200.000 1.000
51.340 206.000 1.000
51.350 204.000 1.000
51.360 199.000 1.000
51.370 198.000 1.000
51.380 201.000 1.000
51.390 199.000 1.000
51.400 199.000 1.000
51.410 204.000 1.000
51.420 198.000 1.000
51.430 178.000 1.000
51.440 197.000 1.000
51.450 201.000 1.000
51.460 203.000 1.000
51.470 189.000 1.000
51.480 203.000 1.000
51.490 210.000 1.000
51.500 204.000 1.000
51.510 202.000 1.000
51.520 201.000 1.000
51.530 201.000 1.000
51.540 206.000 1.000
51.550 184.000 1.000
51.560 179.000 1.000
51.570 173.000 1.000
51.580 210.000 1.000
51.590 206.000 1.000
51.600 194.000 1.000
51.610 219.000 1.000
51.620 204.000 1.000
51.630 208.000 1.000
51.640 208.000 1.000
51.650 210.000 1.000
51.660 217.000 1.000
51.670 212.000 1.000
51.680 225.000 1.000
51.690 212.000 1.000
51.700 197.000 1.000
51.710 207.000 1.000
51.720 225.000 1.000
51.730 228.000 1.000
51.740 219.000 1.000
51.750 198.000 1.000
51.760 201.000 1.000
51.770 207.000 1.000
51.780 211.000 1.000
51.790 208.000 1.000
51.800 220.000 1.000
51.810 220.000 1.000
51.820 219.000 1.000
51.830 225.000 1.000
51.840 225.000 1.000
51.850 221.000 1.000
51.860 220.000 1.000
51.870 210.000 1.000
51.880 233.000 1.000
51.890 210.000 1.000
51.900 229.000 1.000
51.910 233.000 1.000
51.920 235.000 1.000
51.930 227.000 1.000
51.940 230.000 1.000
51.950 217.000 1.000
51.960 231.000 1.000
51.970 241.000 1.000
51.980 228.000 1.000
51.990 220.000 1.000
52.000 218.000 1.000
52.010 242.000 1.000
52.020 235.000 1.000
52.030 218.000 1.000
52.040 236.000 1.000
52.050 225.000 1.000
52.060 224.000 1.000
52.070 229.000 1.000
52.080 259.000 1.000
52.090 232.000 1.000
52.100 223.000 1.000
52.110 235.000 1.000
52.120 236.000 1.000
52.130 224.000 1.000
52.140 218.000 1.000
52.150 231.000 1.000
52.160 258.000 1.000
52.170 253.000 1.000
52.180 238.000 1.000
52.190 225.000 1.000
52.200 243.000 1.000
52.210 249.000 1.000
52.220 233.000 1.000
52.230 218.000 1.000
52.240 239.000 1.000
52.250 234.000 1.000
52.260 266.000 1.000
52.270 244.000 1.000
52.280 226.000 1.000
52.290 220.000 1.000
52.300 255.000 1.000
52.310 259.000 1.000
52.320 248.000 1.000
52.330 233.000 1.000
52.340 245.000 1.000
52.350 263.000 1.000
52.360 257.000 1.000
52.370 258.000 1.000
52.380 255.000 1.000
52.390 263.000 1.000
52.400 246.000 1.000
52.410 231.000 1.000
52.420 250.000 1.000
52.430 223.000 1.000
52.440 232.000 1.000
52.450 234.000 1.000
52.460 220.000 1.000
52.470 231.000 1.000
52.480 232.000 1.000
52.490 223.000 1.000
52.500 229.000 1.000
52.510 238.000 1.000
52.520 265.000 1.000
52.530 266.000 1.000
52.540 232.000 1.000
52.550 229.000 1.000
52.560 236.000 1.000
52.570 231.000 1.000
52.580 240.000 1.000
52.590 234.000 1.000
52.600 237.000 1.000
52.610 219.000 1.000
52.620 202.000 1.000
52.630 216.000 1.000
52.640 213.000 1.000
52.650 227.000 1.000
52.660 212.000 1.000
52.670 206.000 1.000
52.680 213.000 1.000
52.690 229.000 1.000
52.700 209.000 1.000
52.710 208.000 1.000
52.720 209.000 1.000
52.730 209.000 1.000
52.740 220.000 1.000
52.750 218.000 1.000
52.760 212.000 1.000
52.770 206.000 1.000
52.780 215.000 1.000
52.790 212.000 1.000
52.800 199.000 1.000
52.810 193.000 1.000
52.820 207.000 1.000
52.830 175.000 1.000
52.840 194.000 1.000
52.850 206.000 1.000
52.860 203.000 1.000
52.870 206.000 1.000
52.880 225.000 1.000
52.890 208.000 1.000
52.900 203.000 1.000
52.910 218.000 1.000
52.920 206.000 1.000
52.930 190.000 1.000
52.940 213.000 1.000
52.950 216.000 1.000
52.960 199.000 1.000
52.970 193.000 1.000
52.980 191.000 1.000
52.990 192.000 1.000
53.000 192.000 1.000
53.010 195.000 1.000
53.020 195.000 1.000
53.030 208.000 1.000
53.040 222.000 1.000
53.050 216.000 1.000
53.060 197.000 1.000
53.070 187.000 1.000
53.080 198.000 1.000
53.090 200.000 1.000
53.100 208.000 1.000
53.110 193.000 1.000
53.120 174.000 1.000
53.130 199.000 1.000
53.140 201.000 1.000
53.150 204.000 1.000
53.160 220.000 1.000
53.170 199.000 1.000
53.180 195.000 1.000
53.190 199.000 1.000
53.200 201.000 1.000
53.210 199.000 1.000
53.220 197.000 1.000
53.230 194.000 1.000
53.240 196.000 1.000
53.250 202.000 1.000
53.260 212.000 1.000
53.270 217.000 1.000
53.280 216.000 1.000
53.290 191.000 1.000
53.300 214.000 1.000
53.310 219.000 1.000
53.320 207.000 1.000
53.330 204.000 1.000
53.340 202.000 1.000
53.350 211.000 1.000
53.360 202.000 1.000
53.370 216.000 1.000
53.380 205.000 1.000
53.390 204.000 1.000
53.400 205.000 1.000
53.410 218.000 1.000
53.420 200.000 1.000
53.430 206.000 1.000
53.440 210.000 1.000
53.450 208.000 1.000
53.460 201.000 1.000
53.470 200.000 1.000
53.480 209.000 1.000
53.490 215.000 1.000
53.500 220.000 1.000
53.510 220.000 1.000
53.520 210.000 1.000
53.530 237.000 1.000
53.540 212.000 1.000
53.550 218.000 1.000
53.560 219.000 1.000
53.570 224.000 1.000
53.580 226.000 1.000
53.590 221.000 1.000
53.600 208.000 1.000
53.610 218.000 1.000
53.620 232.000 1.000
53.630 211.000 1.000
53.640 226.000 1.000
53.650 226.000 1.000
53.660 221.000 1.000
53.670 212.000 1.000
53.680 211.000 1.000
53.690 219.000 1.000
53.700 217.000 1.000
53.710 216.000 1.000
53.720 221.000 1.000
53.730 208.000 1.000
53.740 203.000 1.000
53.750 205.000 1.000
53.760 220.000 1.000
53.770 226.000 1.000
53.780 219.000 1.000
53.790 203.000 1.000
53.800 215.000 1.000
53.810 201.000 1.000
53.820 200.000 1.000
53.830 203.000 1.000
53.840 223.000 1.000
53.850 224.000 1.000
53.860 208.000 1.000
53.870 187.000 1.000
53.880 199.000 1.000
53.890 215.000 1.000
53.900 224.000 1.000
53.910 218.000 1.000
53.920 203.000 1.000
53.930 191.000 1.000
53.940 219.000 1.000
53.950 207.000 1.000
53.960 208.000 1.000
53.970 221.000 1.000
53.980 208.000 1.000
53.990 214.000 1.000
54.000 222.000 1.000
54.010 204.000 1.000
54.020 188.000 1.000
54.030 198.000 1.000
54.040 206.000 1.000
54.050 208.000 1.000
54.060 208.000 1.000
54.070 200.000 1.000
54.080 210.000 1.000
54.090 215.000 1.000
54.100 200.000 1.000
54.110 198.000 1.000
54.120 201.000 1.000
54.130 202.000 1.000
54.140 206.000 1.000
54.150 220.000 1.000
54.160 216.000 1.000
54.170 208.000 1.000
54.180 209.000 1.000
54.190 212.000 1.000
54.200 232.000 1.000
54.210 234.000 1.000
54.220 241.000 1.000
54.230 222.000 1.000
54.240 224.000 1.000
54.250 204.000 1.000
54.260 209.000 1.000
54.270 217.000 1.000
54.280 215.000 1.000
54.290 216.000 1.000
54.300 219.000 1.000
54.310 214.000 1.000
54.320 216.000 1.000
54.330 227.000 1.000
54.340 227.000 1.000
54.350 223.000 1.000
54.360 234.000 1.000
54.370 237.000 1.000
54.380 225.000 1.000
54.390 222.000 1.000
54.400 235.000 1.000
54.410 225.000 1.000
54.420 210.000 1.000
54.430 222.000 1.000
54.440 239.000 1.000
54.450 245.000 1.000
54.460 234.000 1.000
54.470 213.000 1.000
54.480 208.000 1.000
54.490 219.000 1.000
54.500 227.000 1.000
54.510 216.000 1.000
54.520 201.000 1.000
54.530 185.000 1.000
54.540 187.000 1.000
54.550 198.000 1.000
54.560 218.000 1.000
54.570 214.000 1.000
54.580 214.000 1.000
54.590 215.000 1.000
54.600 216.000 1.000
54.610 208.000 1.000
54.620 200.000 1.000
54.630 214.000 1.000
54.640 209.000 1.000
54.650 215.000 1.000
54.660 207.000 1.000
54.670 198.000 1.000
54.680 210.000 1.000
54.690 203.000 1.000
54.700 214.000 1.000
54.710 214.000 1.000
54.720 215.000 1.000
54.730 202.000 1.000
54.740 226.000 1.000
54.750 219.000 1.000
54.760 201.000 1.000
54.770 203.000 1.000
54.780 218.000 1.000
54.790 197.000 1.000
54.800 197.000 1.000
54.810 208.000 1.000
54.820 188.000 1.000
54.830 202.000 1.000
54.840 204.000 1.000
54.850 199.000 1.000
54.860 189.000 1.000
54.870 213.000 1.000
54.880 216.000 1.000
54.890 211.000 1.000
54.900 202.000 1.000
54.910 195.000 1.000
54.920 222.000 1.000
54.930 218.000 1.000
54.940 194.000 1.000
54.950 196.000 1.000
54.960 193.000 1.000
54.970 203.000 1.000
54.980 205.000 1.000
54.990 170.000 1.000
55.000 173.000 1.000
*RAS_INT_END
*RAS_DATA_END
