*RAS_DATA_START
*RAS_HEADER_START
*CORR_POS_DB_NAME "Sample"
*CORR_POS_GONIO_RADIUS ""
*CORR_POS_NODE_INDEX01 ""
*CORR_POS_NODE_INDEX02 ""
*CORR_POS_NODE_INDEX03 ""
*CORR_POS_NODE_INDEX04 ""
*CORR_POS_NODE_INDEX05 ""
*CORR_POS_NODE_INDEX06 ""
*CORR_POS_NODE_INDEX07 ""
*CORR_POS_NODE_INDEX08 ""
*CORR_POS_NODE_INDEX09 ""
*CORR_POS_NODE_INDEX10 ""
*CORR_POS_NODE_INDEX11 ""
*CORR_POS_NODE_LABEL01 "Si(111)"
*CORR_POS_NODE_LABEL02 "Si(220)"
*CORR_POS_NODE_LABEL03 "Si(311)"
*CORR_POS_NODE_LABEL04 "Si(400)"
*CORR_POS_NODE_LABEL05 "Si(331)"
*CORR_POS_NODE_LABEL06 "Si(422)"
*CORR_POS_NODE_LABEL07 "Si(511)"
*CORR_POS_NODE_LABEL08 "Si(440)"
*CORR_POS_NODE_LABEL09 "Si(531)"
*CORR_POS_NODE_LABEL10 "Si(620)"
*CORR_POS_NODE_LABEL11 "Si(533)"
*CORR_POS_NODE_POS_CALC01 "28.377"
*CORR_POS_NODE_POS_CALC02 "47.2506"
*CORR_POS_NODE_POS_CALC03 "56.0725"
*CORR_POS_NODE_POS_CALC04 "69.0822"
*CORR_POS_NODE_POS_CALC05 "76.3294"
*CORR_POS_NODE_POS_CALC06 "87.9853"
*CORR_POS_NODE_POS_CALC07 "94.9091"
*CORR_POS_NODE_POS_CALC08 "106.668"
*CORR_POS_NODE_POS_CALC09 "114.054"
*CORR_POS_NODE_POS_CALC10 "127.511"
*CORR_POS_NODE_POS_CALC11 "136.864"
*CORR_POS_NODE_POS_MEAS01 "28.377"
*CORR_POS_NODE_POS_MEAS02 "47.2506"
*CORR_POS_NODE_POS_MEAS03 "56.0725"
*CORR_POS_NODE_POS_MEAS04 "69.0822"
*CORR_POS_NODE_POS_MEAS05 "76.3294"
*CORR_POS_NODE_POS_MEAS06 "87.9853"
*CORR_POS_NODE_POS_MEAS07 "94.9091"
*CORR_POS_NODE_POS_MEAS08 "106.668"
*CORR_POS_NODE_POS_MEAS09 "114.054"
*CORR_POS_NODE_POS_MEAS10 "127.511"
*CORR_POS_NODE_POS_MEAS11 "136.864"
*CORR_POS_OPT_ATTR "集中法"
*CORR_POS_PARAM_MU ""
*CORR_POS_PARAM_PL ""
*CORR_POS_SEMODEL_TYPE "0"
*CORR_POS_STANDARD_TYPE ""
*CORR_POS_VALUE_ANALYZER "None"
*CORR_POS_VALUE_CMONO "None"
*CORR_POS_VALUE_IMONO "None"
*CORR_POS_VALUE_IS "1.250deg"
*CORR_POS_VALUE_ISL "10.0mm"
*CORR_POS_VALUE_ISOLLER "5.0deg"
*CORR_POS_VALUE_RS1 "1.250deg"
*CORR_POS_VALUE_RS2 "0.3mm"
*CORR_POS_VALUE_RSOLLER "5.0deg"
*CORR_POS_XG_FOCUS_L ""
*CORR_POS_XG_WAVE_TYPE ""
*CORR_POS_XG_WAVE_VALUE ""
*DISP_FMT_X "%.2f"
*DISP_FMT_Y "%.0f"
*DISP_FULLSCALE "43440.0000000000"
*DISP_LINE_COLOR "255.0000000000"
*DISP_LINE_STYLE "0.0000000000"
*DISP_LINE_WIDTH "0.2500000000"
*DISP_NOTE "測定データ-2"
*DISP_OFFSET_Y "0.0000000000"
*DISP_PEAKSEARCH_UNIT_Y "CPS"
*DISP_RANGE_BOTTOM "0.0000000000"
*DISP_RANGE_LEFT "3.0000000000"
*DISP_RANGE_LOGCUTOFF "0.0100000000"
*DISP_RANGE_RIGHT "55.0000000000"
*DISP_RANGE_TOP "43440.0000000000"
*DISP_SCALE_MODE_Y "0.0000000000"
*DISP_TAB_NAME "2θ/θ"
*DISP_TITLE_Y "強度"
*DISP_UNIT_Y "CPS"
*DISP_WINDOW_NAME "MSG_MACROENGINE"
*FILE_COMMENT " "
*FILE_MD5 ""
*FILE_MEMO " "
*FILE_OPERATOR "administrator"
*FILE_PART_ID "MEAS_PBEA_00223"
*FILE_SAMPLE " "
*FILE_TYPE "RAS_RAW"
*FILE_USERGROUP "システムマネージャ"
*FILE_VERSION "1.0000000000"
*HW_ATTACHMENT_ID "ATT1031"
*HW_ATTACHMENT_NAME "6サンプルチェンジャ|ASC-6"
*HW_COUNTER_ID-0 "CUT0025"
*HW_COUNTER_ID-1 "CUT0020"
*HW_COUNTER_ID-2 "CUT0020"
*HW_COUNTER_ID-3 "CMC0021"
*HW_COUNTER_NAME-0 "D/teX Ultra|D/teX Ultra"
*HW_COUNTER_NAME-1 "None|None"
*HW_COUNTER_NAME-2 "None|None"
*HW_COUNTER_NAME-3 "検出器モノクロメータ|Detector monochromator"
*HW_COUNTER_SELECT_NAME "D/teX Ultra|D/teX Ultra"
*HW_GONIOMETER_ID "GON0070"
*HW_GONIOMETER_NAME "MiniFlex 300/600|MiniFlex 300/600"
*HW_GONIOMETER_RADIUS-0 "79.0"
*HW_GONIOMETER_RADIUS-1 "91.5"
*HW_GONIOMETER_RADIUS-2 "150.0"
*HW_GONIOMETER_RADIUS-3 "0"
*HW_GONIOMETER_RADIUS-4 "103.4"
*HW_GONIOMETER_RADIUS-5 "150.0"
*HW_GONIOMETER_RADIUS-6 "46.6"
*HW_GONIOMETER_RADIUS-7 "160.0"
*HW_I_OPT_ID-0 "ISL0021"
*HW_I_OPT_ID-1 "ISO0021"
*HW_I_OPT_NAME-0 "発散スリット|Divergence slit"
*HW_I_OPT_NAME-1 "入射平行スリット|Incident parallel slit"
*HW_R_ATTENUATER_AUTOMODE "0"
*HW_R_OPT_ID-0 "RSS0021"
*HW_R_OPT_ID-1 "RSO0021"
*HW_R_OPT_ID-2 "RRS0021"
*HW_R_OPT_NAME-0 "散乱スリット|Scattering slit"
*HW_R_OPT_NAME-1 "受光平行スリット|Receiving soller slit"
*HW_R_OPT_NAME-2 "受光スリット|Receiving slit"
*HW_SAMPLE_HOLDER_ID "SMP0000"
*HW_SAMPLE_HOLDER_NAME "無し|None"
*HW_XG_CURRENT_MAX "15"
*HW_XG_CURRENT_MIN "2"
*HW_XG_CURRENT_RESOLUTION "1"
*HW_XG_CURRENT_UNIT "mA"
*HW_XG_FOCUS "1mm x 10mm"
*HW_XG_FOCUS_TYPE "Normal"
*HW_XG_ID "1060"
*HW_XG_NAME "300W/600W 封入管-B|300W/600W Sealed tube-B"
*HW_XG_TARGET_ATOMIC_NUMBER "29.0000000000"
*HW_XG_TARGET_NAME "Cu"
*HW_XG_TYPE "Hermetic"
*HW_XG_VOLTAGE_MAX "40"
*HW_XG_VOLTAGE_MIN "20"
*HW_XG_VOLTAGE_RESOLUTION "1"
*HW_XG_VOLTAGE_UNIT "kV"
*HW_XG_WATT_MAX "1"
*HW_XG_WATT_UNIT "kW"
*HW_XG_WAVE_LENGTH_ALPHA1 "1.540593"
*HW_XG_WAVE_LENGTH_ALPHA2 "1.544414"
*HW_XG_WAVE_LENGTH_BETA "1.392250"
*MEAS_COND_AXIS_NAME-0 "2θ/θ"
*MEAS_COND_AXIS_NAME-1 "試料回転"
*MEAS_COND_AXIS_NAME-2 "試料交換"
*MEAS_COND_AXIS_NAME-3 "Soller(inc.)"
*MEAS_COND_AXIS_NAME-4 "IHS"
*MEAS_COND_AXIS_NAME-5 "DS"
*MEAS_COND_AXIS_NAME-6 "SS"
*MEAS_COND_AXIS_NAME-7 "Soller(rec.)"
*MEAS_COND_AXIS_NAME-8 "RS"
*MEAS_COND_AXIS_NAME-9 "フィルター"
*MEAS_COND_AXIS_NAME-10 "モノクロメータ"
*MEAS_COND_AXIS_NAME-11 "PHA"
*MEAS_COND_AXIS_NAME_INTERNAL-0 "TwoThetaTheta"
*MEAS_COND_AXIS_NAME_INTERNAL-1 "Spin"
*MEAS_COND_AXIS_NAME_INTERNAL-2 "Change"
*MEAS_COND_AXIS_NAME_INTERNAL-3 "IncidentSollerSlit"
*MEAS_COND_AXIS_NAME_INTERNAL-4 "IncidentAxdSlit"
*MEAS_COND_AXIS_NAME_INTERNAL-5 "IncidentSlitBox"
*MEAS_COND_AXIS_NAME_INTERNAL-6 "ReceivingSlitBox1"
*MEAS_COND_AXIS_NAME_INTERNAL-7 "ReceivingSollerSlit"
*MEAS_COND_AXIS_NAME_INTERNAL-8 "ReceivingSlitBox2"
*MEAS_COND_AXIS_NAME_INTERNAL-9 "Filter"
*MEAS_COND_AXIS_NAME_INTERNAL-10 "CounterMonochromator"
*MEAS_COND_AXIS_NAME_INTERNAL-11 "PHA"
*MEAS_COND_AXIS_NAME_MAGICNO-0 "268632064.0000000000"
*MEAS_COND_AXIS_NAME_MAGICNO-1 "16842752.0000000000"
*MEAS_COND_AXIS_NAME_MAGICNO-2 "16842752.0000000000"
*MEAS_COND_AXIS_NAME_MAGICNO-3 "20971521.0000000000"
*MEAS_COND_AXIS_NAME_MAGICNO-4 "22020097.0000000000"
*MEAS_COND_AXIS_NAME_MAGICNO-5 "22020097.0000000000"
*MEAS_COND_AXIS_NAME_MAGICNO-6 "23068673.0000000000"
*MEAS_COND_AXIS_NAME_MAGICNO-7 "20971521.0000000000"
*MEAS_COND_AXIS_NAME_MAGICNO-8 "23068673.0000000000"
*MEAS_COND_AXIS_NAME_MAGICNO-9 "20971521.0000000000"
*MEAS_COND_AXIS_NAME_MAGICNO-10 "20971521.0000000000"
*MEAS_COND_AXIS_NAME_MAGICNO-11 "0.0000000000"
*MEAS_COND_AXIS_OFFSET-0 "0.0000000000"
*MEAS_COND_AXIS_OFFSET-1 "-"
*MEAS_COND_AXIS_OFFSET-2 "-"
*MEAS_COND_AXIS_OFFSET-3 "-"
*MEAS_COND_AXIS_OFFSET-4 "-"
*MEAS_COND_AXIS_OFFSET-5 "-"
*MEAS_COND_AXIS_OFFSET-6 "-"
*MEAS_COND_AXIS_OFFSET-7 "-"
*MEAS_COND_AXIS_OFFSET-8 "-"
*MEAS_COND_AXIS_OFFSET-9 "-"
*MEAS_COND_AXIS_OFFSET-10 "-"
*MEAS_COND_AXIS_OFFSET-11 "-"
*MEAS_COND_AXIS_POSITION-0 "57.5400000000"
*MEAS_COND_AXIS_POSITION-1 "0.0000000000"
*MEAS_COND_AXIS_POSITION-2 "5.0000000000"
*MEAS_COND_AXIS_POSITION-3 "2.5deg"
*MEAS_COND_AXIS_POSITION-4 "10.0mm"
*MEAS_COND_AXIS_POSITION-5 "1.250deg"
*MEAS_COND_AXIS_POSITION-6 "13.0mm(Open)"
*MEAS_COND_AXIS_POSITION-7 "2.5deg"
*MEAS_COND_AXIS_POSITION-8 "13.0mm"
*MEAS_COND_AXIS_POSITION-9 "K-beta(x1)"
*MEAS_COND_AXIS_POSITION-10 "None"
*MEAS_COND_AXIS_POSITION-11 "34.0000000000"
*MEAS_COND_AXIS_UNIT-0 "deg"
*MEAS_COND_AXIS_UNIT-1 ""
*MEAS_COND_AXIS_UNIT-2 ""
*MEAS_COND_AXIS_UNIT-3 ""
*MEAS_COND_AXIS_UNIT-4 ""
*MEAS_COND_AXIS_UNIT-5 ""
*MEAS_COND_AXIS_UNIT-6 ""
*MEAS_COND_AXIS_UNIT-7 ""
*MEAS_COND_AXIS_UNIT-8 ""
*MEAS_COND_AXIS_UNIT-9 ""
*MEAS_COND_AXIS_UNIT-10 ""
*MEAS_COND_AXIS_UNIT-11 "div"
*MEAS_COND_COUNTER_CNTLOSS_CORR "0.0000000000"
*MEAS_COND_COUNTER_PHABASE "34.0000000000"
*MEAS_COND_COUNTER_PHAWINDOW "14.0000000000"
*MEAS_COND_COUNTER_PHA_UNIT "div"
*MEAS_COND_COUNTER_TAUDIFF "0.2500000000"
*MEAS_COND_COUNTER_TAUINT "0.7500000000"
*MEAS_COND_IRRADIATION_MODE "OFF"
*MEAS_COND_IRRADIATION_WIDTH ""
*MEAS_COND_OPT_ATTR " "
*MEAS_COND_OPT_NAME ""
*MEAS_COND_UNSYMMETRIC_MODE "OFF"
*MEAS_COND_XG_CURRENT "15.0000000000"
*MEAS_COND_XG_VOLTAGE "40.0000000000"
*MEAS_COND_XG_WAVE_TYPE "Ka"
*MEAS_DATA_COUNT "5201.0000000000"
*MEAS_SCAN_AXIS_X "2θ/θ"
*MEAS_SCAN_AXIS_X_INTERNAL "TwoThetaTheta"
*MEAS_SCAN_END_TIME "11/24/23 10:43:36"
*MEAS_SCAN_MODE "CONTINUOUS"
*MEAS_SCAN_MONITOR "0"
*MEAS_SCAN_RESOLUTION_X "0.005"
*MEAS_SCAN_SPEED "10.000"
*MEAS_SCAN_SPEED_UNIT "deg/min"
*MEAS_SCAN_SPEED_USER "10.000"
*MEAS_SCAN_START "3.0000000000"
*MEAS_SCAN_START_TIME "11/24/23 10:37:31"
*MEAS_SCAN_STEP "0.0100000000"
*MEAS_SCAN_STOP "55.0000000000"
*MEAS_SCAN_UNIT_X "deg"
*MEAS_SCAN_UNIT_Y "counts"
*SLIT_SYSTEM "0"
*RAS_HEADER_END
*RAS_INT_START
3.000 99.000 1.000
3.010 106.000 1.000
3.020 113.000 1.000
3.030 121.000 1.000
3.040 116.000 1.000
3.050 94.000 1.000
3.060 100.000 1.000
3.070 103.000 1.000
3.080 100.000 1.000
3.090 109.000 1.000
3.100 116.000 1.000
3.110 125.000 1.000
3.120 102.000 1.000
3.130 91.000 1.000
3.140 93.000 1.000
3.150 103.000 1.000
3.160 108.000 1.000
3.170 120.000 1.000
3.180 101.000 1.000
3.190 89.000 1.000
3.200 110.000 1.000
3.210 111.000 1.000
3.220 105.000 1.000
3.230 101.000 1.000
3.240 103.000 1.000
3.250 99.000 1.000
3.260 100.000 1.000
3.270 93.000 1.000
3.280 99.000 1.000
3.290 95.000 1.000
3.300 110.000 1.000
3.310 108.000 1.000
3.320 115.000 1.000
3.330 98.000 1.000
3.340 95.000 1.000
3.350 88.000 1.000
3.360 97.000 1.000
3.370 100.000 1.000
3.380 101.000 1.000
3.390 111.000 1.000
3.400 97.000 1.000
3.410 86.000 1.000
3.420 96.000 1.000
3.430 89.000 1.000
3.440 83.000 1.000
3.450 96.000 1.000
3.460 94.000 1.000
3.470 100.000 1.000
3.480 81.000 1.000
3.490 96.000 1.000
3.500 105.000 1.000
3.510 107.000 1.000
3.520 82.000 1.000
3.530 84.000 1.000
3.540 91.000 1.000
3.550 89.000 1.000
3.560 93.000 1.000
3.570 92.000 1.000
3.580 93.000 1.000
3.590 81.000 1.000
3.600 75.000 1.000
3.610 83.000 1.000
3.620 93.000 1.000
3.630 85.000 1.000
3.640 71.000 1.000
3.650 81.000 1.000
3.660 100.000 1.000
3.670 95.000 1.000
3.680 94.000 1.000
3.690 86.000 1.000
3.700 92.000 1.000
3.710 82.000 1.000
3.720 92.000 1.000
3.730 91.000 1.000
3.740 94.000 1.000
3.750 94.000 1.000
3.760 96.000 1.000
3.770 90.000 1.000
3.780 92.000 1.000
3.790 92.000 1.000
3.800 85.000 1.000
3.810 99.000 1.000
3.820 101.000 1.000
3.830 80.000 1.000
3.840 77.000 1.000
3.850 73.000 1.000
3.860 79.000 1.000
3.870 81.000 1.000
3.880 75.000 1.000
3.890 78.000 1.000
3.900 80.000 1.000
3.910 78.000 1.000
3.920 87.000 1.000
3.930 93.000 1.000
3.940 80.000 1.000
3.950 78.000 1.000
3.960 68.000 1.000
3.970 87.000 1.000
3.980 84.000 1.000
3.990 82.000 1.000
4.000 79.000 1.000
4.010 81.000 1.000
4.020 73.000 1.000
4.030 80.000 1.000
4.040 82.000 1.000
4.050 78.000 1.000
4.060 85.000 1.000
4.070 84.000 1.000
4.080 89.000 1.000
4.090 82.000 1.000
4.100 83.000 1.000
4.110 87.000 1.000
4.120 83.000 1.000
4.130 84.000 1.000
4.140 88.000 1.000
4.150 68.000 1.000
4.160 76.000 1.000
4.170 89.000 1.000
4.180 79.000 1.000
4.190 77.000 1.000
4.200 77.000 1.000
4.210 69.000 1.000
4.220 67.000 1.000
4.230 78.000 1.000
4.240 90.000 1.000
4.250 85.000 1.000
4.260 77.000 1.000
4.270 77.000 1.000
4.280 75.000 1.000
4.290 69.000 1.000
4.300 69.000 1.000
4.310 71.000 1.000
4.320 77.000 1.000
4.330 76.000 1.000
4.340 71.000 1.000
4.350 69.000 1.000
4.360 89.000 1.000
4.370 85.000 1.000
4.380 78.000 1.000
4.390 77.000 1.000
4.400 77.000 1.000
4.410 69.000 1.000
4.420 71.000 1.000
4.430 87.000 1.000
4.440 83.000 1.000
4.450 77.000 1.000
4.460 77.000 1.000
4.470 63.000 1.000
4.480 60.000 1.000
4.490 65.000 1.000
4.500 64.000 1.000
4.510 82.000 1.000
4.520 75.000 1.000
4.530 69.000 1.000
4.540 84.000 1.000
4.550 84.000 1.000
4.560 68.000 1.000
4.570 68.000 1.000
4.580 71.000 1.000
4.590 69.000 1.000
4.600 67.000 1.000
4.610 58.000 1.000
4.620 77.000 1.000
4.630 81.000 1.000
4.640 71.000 1.000
4.650 81.000 1.000
4.660 80.000 1.000
4.670 78.000 1.000
4.680 82.000 1.000
4.690 85.000 1.000
4.700 79.000 1.000
4.710 69.000 1.000
4.720 67.000 1.000
4.730 76.000 1.000
4.740 75.000 1.000
4.750 73.000 1.000
4.760 76.000 1.000
4.770 65.000 1.000
4.780 75.000 1.000
4.790 60.000 1.000
4.800 68.000 1.000
4.810 60.000 1.000
4.820 75.000 1.000
4.830 73.000 1.000
4.840 71.000 1.000
4.850 77.000 1.000
4.860 69.000 1.000
4.870 80.000 1.000
4.880 81.000 1.000
4.890 86.000 1.000
4.900 84.000 1.000
4.910 84.000 1.000
4.920 81.000 1.000
4.930 80.000 1.000
4.940 82.000 1.000
4.950 86.000 1.000
4.960 91.000 1.000
4.970 89.000 1.000
4.980 96.000 1.000
4.990 83.000 1.000
5.000 80.000 1.000
5.010 82.000 1.000
5.020 79.000 1.000
5.030 93.000 1.000
5.040 85.000 1.000
5.050 95.000 1.000
5.060 89.000 1.000
5.070 93.000 1.000
5.080 85.000 1.000
5.090 86.000 1.000
5.100 85.000 1.000
5.110 95.000 1.000
5.120 90.000 1.000
5.130 82.000 1.000
5.140 94.000 1.000
5.150 103.000 1.000
5.160 95.000 1.000
5.170 89.000 1.000
5.180 93.000 1.000
5.190 91.000 1.000
5.200 90.000 1.000
5.210 94.000 1.000
5.220 89.000 1.000
5.230 84.000 1.000
5.240 89.000 1.000
5.250 84.000 1.000
5.260 95.000 1.000
5.270 81.000 1.000
5.280 70.000 1.000
5.290 61.000 1.000
5.300 62.000 1.000
5.310 73.000 1.000
5.320 76.000 1.000
5.330 70.000 1.000
5.340 82.000 1.000
5.350 74.000 1.000
5.360 81.000 1.000
5.370 83.000 1.000
5.380 93.000 1.000
5.390 81.000 1.000
5.400 81.000 1.000
5.410 66.000 1.000
5.420 78.000 1.000
5.430 66.000 1.000
5.440 79.000 1.000
5.450 76.000 1.000
5.460 71.000 1.000
5.470 63.000 1.000
5.480 66.000 1.000
5.490 67.000 1.000
5.500 73.000 1.000
5.510 66.000 1.000
5.520 69.000 1.000
5.530 74.000 1.000
5.540 70.000 1.000
5.550 69.000 1.000
5.560 71.000 1.000
5.570 68.000 1.000
5.580 72.000 1.000
5.590 80.000 1.000
5.600 66.000 1.000
5.610 78.000 1.000
5.620 70.000 1.000
5.630 63.000 1.000
5.640 64.000 1.000
5.650 79.000 1.000
5.660 76.000 1.000
5.670 64.000 1.000
5.680 73.000 1.000
5.690 68.000 1.000
5.700 67.000 1.000
5.710 83.000 1.000
5.720 75.000 1.000
5.730 64.000 1.000
5.740 78.000 1.000
5.750 77.000 1.000
5.760 72.000 1.000
5.770 75.000 1.000
5.780 76.000 1.000
5.790 73.000 1.000
5.800 69.000 1.000
5.810 68.000 1.000
5.820 78.000 1.000
5.830 85.000 1.000
5.840 76.000 1.000
5.850 68.000 1.000
5.860 66.000 1.000
5.870 72.000 1.000
5.880 83.000 1.000
5.890 77.000 1.000
5.900 75.000 1.000
5.910 68.000 1.000
5.920 76.000 1.000
5.930 76.000 1.000
5.940 86.000 1.000
5.950 88.000 1.000
5.960 76.000 1.000
5.970 72.000 1.000
5.980 73.000 1.000
5.990 67.000 1.000
6.000 71.000 1.000
6.010 71.000 1.000
6.020 75.000 1.000
6.030 70.000 1.000
6.040 69.000 1.000
6.050 65.000 1.000
6.060 68.000 1.000
6.070 82.000 1.000
6.080 75.000 1.000
6.090 79.000 1.000
6.100 80.000 1.000
6.110 74.000 1.000
6.120 84.000 1.000
6.130 70.000 1.000
6.140 77.000 1.000
6.150 85.000 1.000
6.160 80.000 1.000
6.170 77.000 1.000
6.180 79.000 1.000
6.190 75.000 1.000
6.200 71.000 1.000
6.210 79.000 1.000
6.220 71.000 1.000
6.230 62.000 1.000
6.240 76.000 1.000
6.250 82.000 1.000
6.260 85.000 1.000
6.270 79.000 1.000
6.280 74.000 1.000
6.290 62.000 1.000
6.300 84.000 1.000
6.310 72.000 1.000
6.320 80.000 1.000
6.330 77.000 1.000
6.340 83.000 1.000
6.350 71.000 1.000
6.360 73.000 1.000
6.370 69.000 1.000
6.380 72.000 1.000
6.390 81.000 1.000
6.400 86.000 1.000
6.410 79.000 1.000
6.420 80.000 1.000
6.430 72.000 1.000
6.440 75.000 1.000
6.450 80.000 1.000
6.460 75.000 1.000
6.470 79.000 1.000
6.480 83.000 1.000
6.490 86.000 1.000
6.500 73.000 1.000
6.510 86.000 1.000
6.520 83.000 1.000
6.530 80.000 1.000
6.540 76.000 1.000
6.550 81.000 1.000
6.560 85.000 1.000
6.570 91.000 1.000
6.580 79.000 1.000
6.590 84.000 1.000
6.600 89.000 1.000
6.610 90.000 1.000
6.620 77.000 1.000
6.630 75.000 1.000
6.640 69.000 1.000
6.650 72.000 1.000
6.660 77.000 1.000
6.670 86.000 1.000
6.680 84.000 1.000
6.690 72.000 1.000
6.700 81.000 1.000
6.710 80.000 1.000
6.720 81.000 1.000
6.730 72.000 1.000
6.740 81.000 1.000
6.750 92.000 1.000
6.760 85.000 1.000
6.770 81.000 1.000
6.780 84.000 1.000
6.790 89.000 1.000
6.800 78.000 1.000
6.810 74.000 1.000
6.820 85.000 1.000
6.830 98.000 1.000
6.840 94.000 1.000
6.850 83.000 1.000
6.860 88.000 1.000
6.870 90.000 1.000
6.880 71.000 1.000
6.890 75.000 1.000
6.900 84.000 1.000
6.910 93.000 1.000
6.920 82.000 1.000
6.930 74.000 1.000
6.940 68.000 1.000
6.950 84.000 1.000
6.960 88.000 1.000
6.970 85.000 1.000
6.980 79.000 1.000
6.990 80.000 1.000
7.000 86.000 1.000
7.010 93.000 1.000
7.020 94.000 1.000
7.030 95.000 1.000
7.040 82.000 1.000
7.050 83.000 1.000
7.060 87.000 1.000
7.070 89.000 1.000
7.080 82.000 1.000
7.090 85.000 1.000
7.100 77.000 1.000
7.110 81.000 1.000
7.120 96.000 1.000
7.130 92.000 1.000
7.140 92.000 1.000
7.150 85.000 1.000
7.160 84.000 1.000
7.170 95.000 1.000
7.180 82.000 1.000
7.190 89.000 1.000
7.200 88.000 1.000
7.210 87.000 1.000
7.220 87.000 1.000
7.230 89.000 1.000
7.240 99.000 1.000
7.250 91.000 1.000
7.260 84.000 1.000
7.270 79.000 1.000
7.280 79.000 1.000
7.290 87.000 1.000
7.300 81.000 1.000
7.310 88.000 1.000
7.320 90.000 1.000
7.330 77.000 1.000
7.340 79.000 1.000
7.350 97.000 1.000
7.360 96.000 1.000
7.370 95.000 1.000
7.380 86.000 1.000
7.390 99.000 1.000
7.400 100.000 1.000
7.410 94.000 1.000
7.420 88.000 1.000
7.430 83.000 1.000
7.440 96.000 1.000
7.450 92.000 1.000
7.460 90.000 1.000
7.470 99.000 1.000
7.480 87.000 1.000
7.490 95.000 1.000
7.500 107.000 1.000
7.510 101.000 1.000
7.520 97.000 1.000
7.530 91.000 1.000
7.540 100.000 1.000
7.550 99.000 1.000
7.560 89.000 1.000
7.570 84.000 1.000
7.580 92.000 1.000
7.590 90.000 1.000
7.600 91.000 1.000
7.610 93.000 1.000
7.620 108.000 1.000
7.630 102.000 1.000
7.640 89.000 1.000
7.650 93.000 1.000
7.660 104.000 1.000
7.670 104.000 1.000
7.680 102.000 1.000
7.690 101.000 1.000
7.700 101.000 1.000
7.710 125.000 1.000
7.720 105.000 1.000
7.730 103.000 1.000
7.740 120.000 1.000
7.750 122.000 1.000
7.760 136.000 1.000
7.770 132.000 1.000
7.780 152.000 1.000
7.790 144.000 1.000
7.800 163.000 1.000
7.810 175.000 1.000
7.820 183.000 1.000
7.830 196.000 1.000
7.840 230.000 1.000
7.850 242.000 1.000
7.860 263.000 1.000
7.870 285.000 1.000
7.880 296.000 1.000
7.890 318.000 1.000
7.900 357.000 1.000
7.910 368.000 1.000
7.920 378.000 1.000
7.930 403.000 1.000
7.940 418.000 1.000
7.950 358.000 1.000
7.960 311.000 1.000
7.970 271.000 1.000
7.980 246.000 1.000
7.990 224.000 1.000
8.000 174.000 1.000
8.010 166.000 1.000
8.020 164.000 1.000
8.030 151.000 1.000
8.040 139.000 1.000
8.050 130.000 1.000
8.060 135.000 1.000
8.070 130.000 1.000
8.080 121.000 1.000
8.090 124.000 1.000
8.100 124.000 1.000
8.110 124.000 1.000
8.120 116.000 1.000
8.130 122.000 1.000
8.140 135.000 1.000
8.150 141.000 1.000
8.160 127.000 1.000
8.170 134.000 1.000
8.180 135.000 1.000
8.190 118.000 1.000
8.200 141.000 1.000
8.210 138.000 1.000
8.220 131.000 1.000
8.230 127.000 1.000
8.240 133.000 1.000
8.250 119.000 1.000
8.260 120.000 1.000
8.270 127.000 1.000
8.280 130.000 1.000
8.290 125.000 1.000
8.300 125.000 1.000
8.310 123.000 1.000
8.320 124.000 1.000
8.330 119.000 1.000
8.340 116.000 1.000
8.350 127.000 1.000
8.360 120.000 1.000
8.370 119.000 1.000
8.380 106.000 1.000
8.390 101.000 1.000
8.400 106.000 1.000
8.410 94.000 1.000
8.420 108.000 1.000
8.430 115.000 1.000
8.440 109.000 1.000
8.450 106.000 1.000
8.460 111.000 1.000
8.470 109.000 1.000
8.480 101.000 1.000
8.490 106.000 1.000
8.500 95.000 1.000
8.510 103.000 1.000
8.520 116.000 1.000
8.530 116.000 1.000
8.540 110.000 1.000
8.550 104.000 1.000
8.560 103.000 1.000
8.570 114.000 1.000
8.580 113.000 1.000
8.590 105.000 1.000
8.600 111.000 1.000
8.610 123.000 1.000
8.620 117.000 1.000
8.630 101.000 1.000
8.640 116.000 1.000
8.650 120.000 1.000
8.660 113.000 1.000
8.670 108.000 1.000
8.680 101.000 1.000
8.690 104.000 1.000
8.700 123.000 1.000
8.710 128.000 1.000
8.720 114.000 1.000
8.730 117.000 1.000
8.740 116.000 1.000
8.750 117.000 1.000
8.760 118.000 1.000
8.770 129.000 1.000
8.780 108.000 1.000
8.790 108.000 1.000
8.800 112.000 1.000
8.810 97.000 1.000
8.820 121.000 1.000
8.830 106.000 1.000
8.840 103.000 1.000
8.850 118.000 1.000
8.860 113.000 1.000
8.870 110.000 1.000
8.880 104.000 1.000
8.890 113.000 1.000
8.900 123.000 1.000
8.910 117.000 1.000
8.920 112.000 1.000
8.930 113.000 1.000
8.940 114.000 1.000
8.950 106.000 1.000
8.960 110.000 1.000
8.970 117.000 1.000
8.980 124.000 1.000
8.990 119.000 1.000
9.000 113.000 1.000
9.010 115.000 1.000
9.020 122.000 1.000
9.030 121.000 1.000
9.040 116.000 1.000
9.050 124.000 1.000
9.060 120.000 1.000
9.070 119.000 1.000
9.080 115.000 1.000
9.090 128.000 1.000
9.100 128.000 1.000
9.110 124.000 1.000
9.120 114.000 1.000
9.130 112.000 1.000
9.140 112.000 1.000
9.150 121.000 1.000
9.160 119.000 1.000
9.170 115.000 1.000
9.180 134.000 1.000
9.190 140.000 1.000
9.200 130.000 1.000
9.210 122.000 1.000
9.220 114.000 1.000
9.230 132.000 1.000
9.240 124.000 1.000
9.250 122.000 1.000
9.260 127.000 1.000
9.270 142.000 1.000
9.280 134.000 1.000
9.290 140.000 1.000
9.300 144.000 1.000
9.310 151.000 1.000
9.320 143.000 1.000
9.330 141.000 1.000
9.340 150.000 1.000
9.350 136.000 1.000
9.360 139.000 1.000
9.370 146.000 1.000
9.380 143.000 1.000
9.390 130.000 1.000
9.400 138.000 1.000
9.410 142.000 1.000
9.420 156.000 1.000
9.430 160.000 1.000
9.440 145.000 1.000
9.450 149.000 1.000
9.460 143.000 1.000
9.470 155.000 1.000
9.480 154.000 1.000
9.490 155.000 1.000
9.500 150.000 1.000
9.510 151.000 1.000
9.520 154.000 1.000
9.530 145.000 1.000
9.540 146.000 1.000
9.550 148.000 1.000
9.560 155.000 1.000
9.570 150.000 1.000
9.580 137.000 1.000
9.590 144.000 1.000
9.600 155.000 1.000
9.610 131.000 1.000
9.620 130.000 1.000
9.630 129.000 1.000
9.640 126.000 1.000
9.650 125.000 1.000
9.660 136.000 1.000
9.670 122.000 1.000
9.680 126.000 1.000
9.690 128.000 1.000
9.700 133.000 1.000
9.710 121.000 1.000
9.720 123.000 1.000
9.730 133.000 1.000
9.740 128.000 1.000
9.750 121.000 1.000
9.760 123.000 1.000
9.770 129.000 1.000
9.780 123.000 1.000
9.790 132.000 1.000
9.800 124.000 1.000
9.810 129.000 1.000
9.820 129.000 1.000
9.830 119.000 1.000
9.840 117.000 1.000
9.850 120.000 1.000
9.860 131.000 1.000
9.870 139.000 1.000
9.880 144.000 1.000
9.890 128.000 1.000
9.900 133.000 1.000
9.910 133.000 1.000
9.920 130.000 1.000
9.930 129.000 1.000
9.940 115.000 1.000
9.950 122.000 1.000
9.960 133.000 1.000
9.970 143.000 1.000
9.980 127.000 1.000
9.990 130.000 1.000
10.000 146.000 1.000
10.010 126.000 1.000
10.020 115.000 1.000
10.030 134.000 1.000
10.040 130.000 1.000
10.050 123.000 1.000
10.060 129.000 1.000
10.070 132.000 1.000
10.080 140.000 1.000
10.090 139.000 1.000
10.100 128.000 1.000
10.110 133.000 1.000
10.120 139.000 1.000
10.130 144.000 1.000
10.140 137.000 1.000
10.150 128.000 1.000
10.160 128.000 1.000
10.170 127.000 1.000
10.180 148.000 1.000
10.190 138.000 1.000
10.200 127.000 1.000
10.210 127.000 1.000
10.220 138.000 1.000
10.230 140.000 1.000
10.240 133.000 1.000
10.250 127.000 1.000
10.260 141.000 1.000
10.270 133.000 1.000
10.280 147.000 1.000
10.290 155.000 1.000
10.300 145.000 1.000
10.310 140.000 1.000
10.320 156.000 1.000
10.330 138.000 1.000
10.340 142.000 1.000
10.350 148.000 1.000
10.360 158.000 1.000
10.370 169.000 1.000
10.380 168.000 1.000
10.390 161.000 1.000
10.400 152.000 1.000
10.410 147.000 1.000
10.420 149.000 1.000
10.430 157.000 1.000
10.440 154.000 1.000
10.450 158.000 1.000
10.460 150.000 1.000
10.470 150.000 1.000
10.480 160.000 1.000
10.490 157.000 1.000
10.500 197.000 1.000
10.510 177.000 1.000
10.520 177.000 1.000
10.530 161.000 1.000
10.540 173.000 1.000
10.550 168.000 1.000
10.560 189.000 1.000
10.570 183.000 1.000
10.580 176.000 1.000
10.590 176.000 1.000
10.600 167.000 1.000
10.610 174.000 1.000
10.620 180.000 1.000
10.630 189.000 1.000
10.640 183.000 1.000
10.650 190.000 1.000
10.660 187.000 1.000
10.670 188.000 1.000
10.680 178.000 1.000
10.690 189.000 1.000
10.700 211.000 1.000
10.710 227.000 1.000
10.720 229.000 1.000
10.730 231.000 1.000
10.740 222.000 1.000
10.750 227.000 1.000
10.760 243.000 1.000
10.770 266.000 1.000
10.780 261.000 1.000
10.790 274.000 1.000
10.800 284.000 1.000
10.810 325.000 1.000
10.820 355.000 1.000
10.830 372.000 1.000
10.840 405.000 1.000
10.850 458.000 1.000
10.860 511.000 1.000
10.870 538.000 1.000
10.880 594.000 1.000
10.890 653.000 1.000
10.900 712.000 1.000
10.910 763.000 1.000
10.920 739.000 1.000
10.930 822.000 1.000
10.940 837.000 1.000
10.950 879.000 1.000
10.960 836.000 1.000
10.970 789.000 1.000
10.980 830.000 1.000
10.990 712.000 1.000
11.000 652.000 1.000
11.010 587.000 1.000
11.020 507.000 1.000
11.030 446.000 1.000
11.040 416.000 1.000
11.050 396.000 1.000
11.060 373.000 1.000
11.070 355.000 1.000
11.080 316.000 1.000
11.090 328.000 1.000
11.100 334.000 1.000
11.110 327.000 1.000
11.120 302.000 1.000
11.130 311.000 1.000
11.140 329.000 1.000
11.150 332.000 1.000
11.160 332.000 1.000
11.170 336.000 1.000
11.180 358.000 1.000
11.190 372.000 1.000
11.200 378.000 1.000
11.210 381.000 1.000
11.220 398.000 1.000
11.230 411.000 1.000
11.240 435.000 1.000
11.250 438.000 1.000
11.260 392.000 1.000
11.270 391.000 1.000
11.280 401.000 1.000
11.290 361.000 1.000
11.300 354.000 1.000
11.310 371.000 1.000
11.320 328.000 1.000
11.330 296.000 1.000
11.340 296.000 1.000
11.350 276.000 1.000
11.360 246.000 1.000
11.370 228.000 1.000
11.380 243.000 1.000
11.390 221.000 1.000
11.400 217.000 1.000
11.410 211.000 1.000
11.420 204.000 1.000
11.430 212.000 1.000
11.440 198.000 1.000
11.450 198.000 1.000
11.460 200.000 1.000
11.470 197.000 1.000
11.480 199.000 1.000
11.490 209.000 1.000
11.500 207.000 1.000
11.510 212.000 1.000
11.520 198.000 1.000
11.530 192.000 1.000
11.540 191.000 1.000
11.550 174.000 1.000
11.560 171.000 1.000
11.570 188.000 1.000
11.580 177.000 1.000
11.590 185.000 1.000
11.600 204.000 1.000
11.610 189.000 1.000
11.620 176.000 1.000
11.630 169.000 1.000
11.640 166.000 1.000
11.650 193.000 1.000
11.660 193.000 1.000
11.670 175.000 1.000
11.680 184.000 1.000
11.690 194.000 1.000
11.700 181.000 1.000
11.710 188.000 1.000
11.720 196.000 1.000
11.730 184.000 1.000
11.740 198.000 1.000
11.750 200.000 1.000
11.760 186.000 1.000
11.770 186.000 1.000
11.780 191.000 1.000
11.790 205.000 1.000
11.800 203.000 1.000
11.810 186.000 1.000
11.820 197.000 1.000
11.830 195.000 1.000
11.840 198.000 1.000
11.850 200.000 1.000
11.860 197.000 1.000
11.870 200.000 1.000
11.880 180.000 1.000
11.890 185.000 1.000
11.900 194.000 1.000
11.910 173.000 1.000
11.920 166.000 1.000
11.930 172.000 1.000
11.940 169.000 1.000
11.950 168.000 1.000
11.960 159.000 1.000
11.970 158.000 1.000
11.980 163.000 1.000
11.990 159.000 1.000
12.000 157.000 1.000
12.010 162.000 1.000
12.020 166.000 1.000
12.030 168.000 1.000
12.040 149.000 1.000
12.050 156.000 1.000
12.060 151.000 1.000
12.070 144.000 1.000
12.080 150.000 1.000
12.090 145.000 1.000
12.100 159.000 1.000
12.110 161.000 1.000
12.120 156.000 1.000
12.130 153.000 1.000
12.140 135.000 1.000
12.150 162.000 1.000
12.160 169.000 1.000
12.170 184.000 1.000
12.180 169.000 1.000
12.190 162.000 1.000
12.200 164.000 1.000
12.210 181.000 1.000
12.220 166.000 1.000
12.230 160.000 1.000
12.240 177.000 1.000
12.250 159.000 1.000
12.260 158.000 1.000
12.270 152.000 1.000
12.280 161.000 1.000
12.290 167.000 1.000
12.300 164.000 1.000
12.310 161.000 1.000
12.320 160.000 1.000
12.330 165.000 1.000
12.340 158.000 1.000
12.350 156.000 1.000
12.360 163.000 1.000
12.370 155.000 1.000
12.380 160.000 1.000
12.390 164.000 1.000
12.400 154.000 1.000
12.410 156.000 1.000
12.420 163.000 1.000
12.430 168.000 1.000
12.440 158.000 1.000
12.450 155.000 1.000
12.460 170.000 1.000
12.470 165.000 1.000
12.480 168.000 1.000
12.490 169.000 1.000
12.500 176.000 1.000
12.510 163.000 1.000
12.520 154.000 1.000
12.530 178.000 1.000
12.540 171.000 1.000
12.550 162.000 1.000
12.560 162.000 1.000
12.570 153.000 1.000
12.580 156.000 1.000
12.590 160.000 1.000
12.600 151.000 1.000
12.610 133.000 1.000
12.620 176.000 1.000
12.630 168.000 1.000
12.640 170.000 1.000
12.650 182.000 1.000
12.660 172.000 1.000
12.670 181.000 1.000
12.680 183.000 1.000
12.690 174.000 1.000
12.700 173.000 1.000
12.710 165.000 1.000
12.720 171.000 1.000
12.730 167.000 1.000
12.740 168.000 1.000
12.750 183.000 1.000
12.760 180.000 1.000
12.770 177.000 1.000
12.780 180.000 1.000
12.790 187.000 1.000
12.800 175.000 1.000
12.810 163.000 1.000
12.820 173.000 1.000
12.830 172.000 1.000
12.840 182.000 1.000
12.850 184.000 1.000
12.860 202.000 1.000
12.870 174.000 1.000
12.880 178.000 1.000
12.890 180.000 1.000
12.900 178.000 1.000
12.910 211.000 1.000
12.920 205.000 1.000
12.930 185.000 1.000
12.940 194.000 1.000
12.950 200.000 1.000
12.960 192.000 1.000
12.970 188.000 1.000
12.980 184.000 1.000
12.990 198.000 1.000
13.000 215.000 1.000
13.010 212.000 1.000
13.020 189.000 1.000
13.030 207.000 1.000
13.040 193.000 1.000
13.050 218.000 1.000
13.060 218.000 1.000
13.070 195.000 1.000
13.080 204.000 1.000
13.090 230.000 1.000
13.100 231.000 1.000
13.110 243.000 1.000
13.120 199.000 1.000
13.130 193.000 1.000
13.140 193.000 1.000
13.150 194.000 1.000
13.160 182.000 1.000
13.170 193.000 1.000
13.180 200.000 1.000
13.190 201.000 1.000
13.200 185.000 1.000
13.210 189.000 1.000
13.220 206.000 1.000
13.230 213.000 1.000
13.240 194.000 1.000
13.250 182.000 1.000
13.260 186.000 1.000
13.270 178.000 1.000
13.280 215.000 1.000
13.290 221.000 1.000
13.300 204.000 1.000
13.310 207.000 1.000
13.320 215.000 1.000
13.330 218.000 1.000
13.340 216.000 1.000
13.350 210.000 1.000
13.360 192.000 1.000
13.370 196.000 1.000
13.380 216.000 1.000
13.390 234.000 1.000
13.400 230.000 1.000
13.410 252.000 1.000
13.420 243.000 1.000
13.430 263.000 1.000
13.440 255.000 1.000
13.450 277.000 1.000
13.460 297.000 1.000
13.470 297.000 1.000
13.480 340.000 1.000
13.490 367.000 1.000
13.500 390.000 1.000
13.510 466.000 1.000
13.520 441.000 1.000
13.530 473.000 1.000
13.540 515.000 1.000
13.550 496.000 1.000
13.560 482.000 1.000
13.570 477.000 1.000
13.580 468.000 1.000
13.590 433.000 1.000
13.600 403.000 1.000
13.610 389.000 1.000
13.620 361.000 1.000
13.630 336.000 1.000
13.640 305.000 1.000
13.650 297.000 1.000
13.660 279.000 1.000
13.670 258.000 1.000
13.680 252.000 1.000
13.690 232.000 1.000
13.700 222.000 1.000
13.710 206.000 1.000
13.720 227.000 1.000
13.730 223.000 1.000
13.740 210.000 1.000
13.750 188.000 1.000
13.760 174.000 1.000
13.770 186.000 1.000
13.780 176.000 1.000
13.790 178.000 1.000
13.800 181.000 1.000
13.810 184.000 1.000
13.820 174.000 1.000
13.830 200.000 1.000
13.840 197.000 1.000
13.850 193.000 1.000
13.860 192.000 1.000
13.870 189.000 1.000
13.880 178.000 1.000
13.890 179.000 1.000
13.900 170.000 1.000
13.910 182.000 1.000
13.920 186.000 1.000
13.930 159.000 1.000
13.940 157.000 1.000
13.950 167.000 1.000
13.960 167.000 1.000
13.970 180.000 1.000
13.980 199.000 1.000
13.990 190.000 1.000
14.000 183.000 1.000
14.010 177.000 1.000
14.020 179.000 1.000
14.030 175.000 1.000
14.040 190.000 1.000
14.050 181.000 1.000
14.060 165.000 1.000
14.070 177.000 1.000
14.080 191.000 1.000
14.090 179.000 1.000
14.100 145.000 1.000
14.110 192.000 1.000
14.120 191.000 1.000
14.130 177.000 1.000
14.140 164.000 1.000
14.150 155.000 1.000
14.160 162.000 1.000
14.170 182.000 1.000
14.180 176.000 1.000
14.190 182.000 1.000
14.200 191.000 1.000
14.210 186.000 1.000
14.220 171.000 1.000
14.230 164.000 1.000
14.240 178.000 1.000
14.250 172.000 1.000
14.260 183.000 1.000
14.270 176.000 1.000
14.280 190.000 1.000
14.290 186.000 1.000
14.300 180.000 1.000
14.310 184.000 1.000
14.320 197.000 1.000
14.330 188.000 1.000
14.340 194.000 1.000
14.350 194.000 1.000
14.360 175.000 1.000
14.370 177.000 1.000
14.380 183.000 1.000
14.390 185.000 1.000
14.400 187.000 1.000
14.410 173.000 1.000
14.420 178.000 1.000
14.430 196.000 1.000
14.440 196.000 1.000
14.450 184.000 1.000
14.460 197.000 1.000
14.470 194.000 1.000
14.480 184.000 1.000
14.490 190.000 1.000
14.500 199.000 1.000
14.510 194.000 1.000
14.520 183.000 1.000
14.530 177.000 1.000
14.540 179.000 1.000
14.550 189.000 1.000
14.560 177.000 1.000
14.570 186.000 1.000
14.580 189.000 1.000
14.590 190.000 1.000
14.600 196.000 1.000
14.610 212.000 1.000
14.620 191.000 1.000
14.630 181.000 1.000
14.640 188.000 1.000
14.650 176.000 1.000
14.660 197.000 1.000
14.670 188.000 1.000
14.680 177.000 1.000
14.690 204.000 1.000
14.700 201.000 1.000
14.710 184.000 1.000
14.720 180.000 1.000
14.730 189.000 1.000
14.740 205.000 1.000
14.750 178.000 1.000
14.760 208.000 1.000
14.770 195.000 1.000
14.780 197.000 1.000
14.790 194.000 1.000
14.800 198.000 1.000
14.810 198.000 1.000
14.820 191.000 1.000
14.830 192.000 1.000
14.840 191.000 1.000
14.850 193.000 1.000
14.860 181.000 1.000
14.870 185.000 1.000
14.880 192.000 1.000
14.890 188.000 1.000
14.900 194.000 1.000
14.910 200.000 1.000
14.920 204.000 1.000
14.930 201.000 1.000
14.940 190.000 1.000
14.950 160.000 1.000
14.960 196.000 1.000
14.970 194.000 1.000
14.980 176.000 1.000
14.990 184.000 1.000
15.000 174.000 1.000
15.010 170.000 1.000
15.020 176.000 1.000
15.030 192.000 1.000
15.040 172.000 1.000
15.050 177.000 1.000
15.060 198.000 1.000
15.070 199.000 1.000
15.080 208.000 1.000
15.090 206.000 1.000
15.100 187.000 1.000
15.110 189.000 1.000
15.120 200.000 1.000
15.130 203.000 1.000
15.140 187.000 1.000
15.150 172.000 1.000
15.160 172.000 1.000
15.170 205.000 1.000
15.180 189.000 1.000
15.190 211.000 1.000
15.200 199.000 1.000
15.210 175.000 1.000
15.220 174.000 1.000
15.230 184.000 1.000
15.240 188.000 1.000
15.250 200.000 1.000
15.260 201.000 1.000
15.270 192.000 1.000
15.280 185.000 1.000
15.290 193.000 1.000
15.300 211.000 1.000
15.310 200.000 1.000
15.320 179.000 1.000
15.330 190.000 1.000
15.340 192.000 1.000
15.350 190.000 1.000
15.360 191.000 1.000
15.370 191.000 1.000
15.380 195.000 1.000
15.390 198.000 1.000
15.400 209.000 1.000
15.410 214.000 1.000
15.420 200.000 1.000
15.430 203.000 1.000
15.440 217.000 1.000
15.450 206.000 1.000
15.460 206.000 1.000
15.470 217.000 1.000
15.480 225.000 1.000
15.490 213.000 1.000
15.500 228.000 1.000
15.510 208.000 1.000
15.520 198.000 1.000
15.530 197.000 1.000
15.540 198.000 1.000
15.550 209.000 1.000
15.560 243.000 1.000
15.570 229.000 1.000
15.580 200.000 1.000
15.590 205.000 1.000
15.600 223.000 1.000
15.610 242.000 1.000
15.620 241.000 1.000
15.630 237.000 1.000
15.640 241.000 1.000
15.650 243.000 1.000
15.660 249.000 1.000
15.670 262.000 1.000
15.680 251.000 1.000
15.690 262.000 1.000
15.700 260.000 1.000
15.710 263.000 1.000
15.720 260.000 1.000
15.730 279.000 1.000
15.740 313.000 1.000
15.750 314.000 1.000
15.760 307.000 1.000
15.770 341.000 1.000
15.780 339.000 1.000
15.790 342.000 1.000
15.800 383.000 1.000
15.810 427.000 1.000
15.820 439.000 1.000
15.830 479.000 1.000
15.840 506.000 1.000
15.850 559.000 1.000
15.860 598.000 1.000
15.870 630.000 1.000
15.880 687.000 1.000
15.890 770.000 1.000
15.900 808.000 1.000
15.910 893.000 1.000
15.920 967.000 1.000
15.930 961.000 1.000
15.940 977.000 1.000
15.950 973.000 1.000
15.960 998.000 1.000
15.970 977.000 1.000
15.980 925.000 1.000
15.990 872.000 1.000
16.000 787.000 1.000
16.010 686.000 1.000
16.020 633.000 1.000
16.030 602.000 1.000
16.040 564.000 1.000
16.050 520.000 1.000
16.060 457.000 1.000
16.070 428.000 1.000
16.080 406.000 1.000
16.090 397.000 1.000
16.100 379.000 1.000
16.110 354.000 1.000
16.120 329.000 1.000
16.130 311.000 1.000
16.140 294.000 1.000
16.150 296.000 1.000
16.160 280.000 1.000
16.170 292.000 1.000
16.180 308.000 1.000
16.190 285.000 1.000
16.200 290.000 1.000
16.210 267.000 1.000
16.220 258.000 1.000
16.230 265.000 1.000
16.240 255.000 1.000
16.250 260.000 1.000
16.260 260.000 1.000
16.270 268.000 1.000
16.280 259.000 1.000
16.290 267.000 1.000
16.300 252.000 1.000
16.310 253.000 1.000
16.320 267.000 1.000
16.330 261.000 1.000
16.340 265.000 1.000
16.350 244.000 1.000
16.360 240.000 1.000
16.370 252.000 1.000
16.380 262.000 1.000
16.390 246.000 1.000
16.400 238.000 1.000
16.410 262.000 1.000
16.420 263.000 1.000
16.430 269.000 1.000
16.440 237.000 1.000
16.450 229.000 1.000
16.460 240.000 1.000
16.470 233.000 1.000
16.480 258.000 1.000
16.490 250.000 1.000
16.500 249.000 1.000
16.510 248.000 1.000
16.520 266.000 1.000
16.530 262.000 1.000
16.540 281.000 1.000
16.550 275.000 1.000
16.560 265.000 1.000
16.570 281.000 1.000
16.580 275.000 1.000
16.590 251.000 1.000
16.600 243.000 1.000
16.610 247.000 1.000
16.620 255.000 1.000
16.630 277.000 1.000
16.640 255.000 1.000
16.650 239.000 1.000
16.660 226.000 1.000
16.670 226.000 1.000
16.680 226.000 1.000
16.690 233.000 1.000
16.700 252.000 1.000
16.710 249.000 1.000
16.720 232.000 1.000
16.730 222.000 1.000
16.740 235.000 1.000
16.750 245.000 1.000
16.760 245.000 1.000
16.770 258.000 1.000
16.780 227.000 1.000
16.790 228.000 1.000
16.800 239.000 1.000
16.810 239.000 1.000
16.820 225.000 1.000
16.830 211.000 1.000
16.840 222.000 1.000
16.850 235.000 1.000
16.860 212.000 1.000
16.870 206.000 1.000
16.880 218.000 1.000
16.890 236.000 1.000
16.900 232.000 1.000
16.910 225.000 1.000
16.920 247.000 1.000
16.930 238.000 1.000
16.940 232.000 1.000
16.950 236.000 1.000
16.960 220.000 1.000
16.970 246.000 1.000
16.980 243.000 1.000
16.990 220.000 1.000
17.000 230.000 1.000
17.010 240.000 1.000
17.020 254.000 1.000
17.030 252.000 1.000
17.040 260.000 1.000
17.050 245.000 1.000
17.060 261.000 1.000
17.070 243.000 1.000
17.080 249.000 1.000
17.090 259.000 1.000
17.100 244.000 1.000
17.110 228.000 1.000
17.120 244.000 1.000
17.130 246.000 1.000
17.140 247.000 1.000
17.150 243.000 1.000
17.160 236.000 1.000
17.170 230.000 1.000
17.180 255.000 1.000
17.190 252.000 1.000
17.200 229.000 1.000
17.210 213.000 1.000
17.220 210.000 1.000
17.230 224.000 1.000
17.240 246.000 1.000
17.250 204.000 1.000
17.260 226.000 1.000
17.270 235.000 1.000
17.280 238.000 1.000
17.290 229.000 1.000
17.300 227.000 1.000
17.310 248.000 1.000
17.320 228.000 1.000
17.330 238.000 1.000
17.340 233.000 1.000
17.350 245.000 1.000
17.360 231.000 1.000
17.370 231.000 1.000
17.380 240.000 1.000
17.390 225.000 1.000
17.400 241.000 1.000
17.410 246.000 1.000
17.420 233.000 1.000
17.430 239.000 1.000
17.440 237.000 1.000
17.450 221.000 1.000
17.460 235.000 1.000
17.470 234.000 1.000
17.480 251.000 1.000
17.490 256.000 1.000
17.500 234.000 1.000
17.510 237.000 1.000
17.520 229.000 1.000
17.530 247.000 1.000
17.540 251.000 1.000
17.550 212.000 1.000
17.560 233.000 1.000
17.570 213.000 1.000
17.580 218.000 1.000
17.590 237.000 1.000
17.600 250.000 1.000
17.610 248.000 1.000
17.620 244.000 1.000
17.630 249.000 1.000
17.640 251.000 1.000
17.650 238.000 1.000
17.660 262.000 1.000
17.670 274.000 1.000
17.680 259.000 1.000
17.690 244.000 1.000
17.700 250.000 1.000
17.710 278.000 1.000
17.720 271.000 1.000
17.730 290.000 1.000
17.740 281.000 1.000
17.750 291.000 1.000
17.760 309.000 1.000
17.770 314.000 1.000
17.780 309.000 1.000
17.790 330.000 1.000
17.800 334.000 1.000
17.810 341.000 1.000
17.820 328.000 1.000
17.830 345.000 1.000
17.840 369.000 1.000
17.850 348.000 1.000
17.860 336.000 1.000
17.870 328.000 1.000
17.880 335.000 1.000
17.890 341.000 1.000
17.900 336.000 1.000
17.910 318.000 1.000
17.920 297.000 1.000
17.930 299.000 1.000
17.940 308.000 1.000
17.950 323.000 1.000
17.960 303.000 1.000
17.970 301.000 1.000
17.980 275.000 1.000
17.990 290.000 1.000
18.000 273.000 1.000
18.010 272.000 1.000
18.020 275.000 1.000
18.030 250.000 1.000
18.040 242.000 1.000
18.050 249.000 1.000
18.060 254.000 1.000
18.070 263.000 1.000
18.080 269.000 1.000
18.090 253.000 1.000
18.100 250.000 1.000
18.110 252.000 1.000
18.120 268.000 1.000
18.130 274.000 1.000
18.140 256.000 1.000
18.150 241.000 1.000
18.160 247.000 1.000
18.170 230.000 1.000
18.180 224.000 1.000
18.190 259.000 1.000
18.200 249.000 1.000
18.210 253.000 1.000
18.220 224.000 1.000
18.230 243.000 1.000
18.240 253.000 1.000
18.250 256.000 1.000
18.260 257.000 1.000
18.270 257.000 1.000
18.280 253.000 1.000
18.290 258.000 1.000
18.300 266.000 1.000
18.310 260.000 1.000
18.320 236.000 1.000
18.330 244.000 1.000
18.340 282.000 1.000
18.350 283.000 1.000
18.360 263.000 1.000
18.370 262.000 1.000
18.380 262.000 1.000
18.390 264.000 1.000
18.400 253.000 1.000
18.410 249.000 1.000
18.420 266.000 1.000
18.430 267.000 1.000
18.440 270.000 1.000
18.450 254.000 1.000
18.460 255.000 1.000
18.470 279.000 1.000
18.480 278.000 1.000
18.490 282.000 1.000
18.500 286.000 1.000
18.510 280.000 1.000
18.520 294.000 1.000
18.530 334.000 1.000
18.540 331.000 1.000
18.550 343.000 1.000
18.560 344.000 1.000
18.570 351.000 1.000
18.580 370.000 1.000
18.590 371.000 1.000
18.600 411.000 1.000
18.610 399.000 1.000
18.620 371.000 1.000
18.630 404.000 1.000
18.640 438.000 1.000
18.650 434.000 1.000
18.660 470.000 1.000
18.670 492.000 1.000
18.680 475.000 1.000
18.690 494.000 1.000
18.700 502.000 1.000
18.710 498.000 1.000
18.720 499.000 1.000
18.730 497.000 1.000
18.740 482.000 1.000
18.750 470.000 1.000
18.760 446.000 1.000
18.770 443.000 1.000
18.780 451.000 1.000
18.790 434.000 1.000
18.800 414.000 1.000
18.810 369.000 1.000
18.820 359.000 1.000
18.830 323.000 1.000
18.840 335.000 1.000
18.850 341.000 1.000
18.860 322.000 1.000
18.870 318.000 1.000
18.880 294.000 1.000
18.890 295.000 1.000
18.900 317.000 1.000
18.910 314.000 1.000
18.920 315.000 1.000
18.930 323.000 1.000
18.940 332.000 1.000
18.950 313.000 1.000
18.960 318.000 1.000
18.970 332.000 1.000
18.980 336.000 1.000
18.990 337.000 1.000
19.000 313.000 1.000
19.010 333.000 1.000
19.020 351.000 1.000
19.030 351.000 1.000
19.040 364.000 1.000
19.050 348.000 1.000
19.060 354.000 1.000
19.070 364.000 1.000
19.080 367.000 1.000
19.090 386.000 1.000
19.100 383.000 1.000
19.110 363.000 1.000
19.120 339.000 1.000
19.130 358.000 1.000
19.140 382.000 1.000
19.150 420.000 1.000
19.160 402.000 1.000
19.170 403.000 1.000
19.180 435.000 1.000
19.190 436.000 1.000
19.200 436.000 1.000
19.210 464.000 1.000
19.220 481.000 1.000
19.230 524.000 1.000
19.240 556.000 1.000
19.250 612.000 1.000
19.260 657.000 1.000
19.270 712.000 1.000
19.280 783.000 1.000
19.290 837.000 1.000
19.300 910.000 1.000
19.310 1020.000 1.000
19.320 1123.000 1.000
19.330 1227.000 1.000
19.340 1316.000 1.000
19.350 1417.000 1.000
19.360 1575.000 1.000
19.370 1757.000 1.000
19.380 1896.000 1.000
19.390 1997.000 1.000
19.400 2103.000 1.000
19.410 2172.000 1.000
19.420 2137.000 1.000
19.430 2126.000 1.000
19.440 2098.000 1.000
19.450 2031.000 1.000
19.460 1928.000 1.000
19.470 1710.000 1.000
19.480 1543.000 1.000
19.490 1370.000 1.000
19.500 1249.000 1.000
19.510 1152.000 1.000
19.520 1020.000 1.000
19.530 881.000 1.000
19.540 794.000 1.000
19.550 709.000 1.000
19.560 607.000 1.000
19.570 579.000 1.000
19.580 525.000 1.000
19.590 502.000 1.000
19.600 440.000 1.000
19.610 413.000 1.000
19.620 401.000 1.000
19.630 384.000 1.000
19.640 393.000 1.000
19.650 370.000 1.000
19.660 340.000 1.000
19.670 333.000 1.000
19.680 339.000 1.000
19.690 337.000 1.000
19.700 334.000 1.000
19.710 335.000 1.000
19.720 333.000 1.000
19.730 322.000 1.000
19.740 315.000 1.000
19.750 314.000 1.000
19.760 280.000 1.000
19.770 275.000 1.000
19.780 295.000 1.000
19.790 286.000 1.000
19.800 296.000 1.000
19.810 278.000 1.000
19.820 281.000 1.000
19.830 264.000 1.000
19.840 244.000 1.000
19.850 263.000 1.000
19.860 273.000 1.000
19.870 292.000 1.000
19.880 301.000 1.000
19.890 257.000 1.000
19.900 257.000 1.000
19.910 257.000 1.000
19.920 264.000 1.000
19.930 253.000 1.000
19.940 276.000 1.000
19.950 281.000 1.000
19.960 278.000 1.000
19.970 273.000 1.000
19.980 252.000 1.000
19.990 258.000 1.000
20.000 250.000 1.000
20.010 274.000 1.000
20.020 277.000 1.000
20.030 281.000 1.000
20.040 280.000 1.000
20.050 270.000 1.000
20.060 261.000 1.000
20.070 272.000 1.000
20.080 296.000 1.000
20.090 281.000 1.000
20.100 270.000 1.000
20.110 262.000 1.000
20.120 264.000 1.000
20.130 271.000 1.000
20.140 269.000 1.000
20.150 267.000 1.000
20.160 276.000 1.000
20.170 270.000 1.000
20.180 279.000 1.000
20.190 283.000 1.000
20.200 274.000 1.000
20.210 276.000 1.000
20.220 266.000 1.000
20.230 255.000 1.000
20.240 254.000 1.000
20.250 292.000 1.000
20.260 280.000 1.000
20.270 285.000 1.000
20.280 282.000 1.000
20.290 279.000 1.000
20.300 320.000 1.000
20.310 303.000 1.000
20.320 280.000 1.000
20.330 300.000 1.000
20.340 310.000 1.000
20.350 313.000 1.000
20.360 323.000 1.000
20.370 315.000 1.000
20.380 300.000 1.000
20.390 305.000 1.000
20.400 319.000 1.000
20.410 318.000 1.000
20.420 322.000 1.000
20.430 327.000 1.000
20.440 349.000 1.000
20.450 343.000 1.000
20.460 348.000 1.000
20.470 359.000 1.000
20.480 361.000 1.000
20.490 369.000 1.000
20.500 340.000 1.000
20.510 370.000 1.000
20.520 391.000 1.000
20.530 384.000 1.000
20.540 386.000 1.000
20.550 376.000 1.000
20.560 392.000 1.000
20.570 395.000 1.000
20.580 408.000 1.000
20.590 409.000 1.000
20.600 425.000 1.000
20.610 430.000 1.000
20.620 438.000 1.000
20.630 449.000 1.000
20.640 456.000 1.000
20.650 441.000 1.000
20.660 424.000 1.000
20.670 432.000 1.000
20.680 455.000 1.000
20.690 455.000 1.000
20.700 438.000 1.000
20.710 420.000 1.000
20.720 427.000 1.000
20.730 438.000 1.000
20.740 441.000 1.000
20.750 467.000 1.000
20.760 482.000 1.000
20.770 441.000 1.000
20.780 440.000 1.000
20.790 446.000 1.000
20.800 430.000 1.000
20.810 427.000 1.000
20.820 404.000 1.000
20.830 396.000 1.000
20.840 419.000 1.000
20.850 412.000 1.000
20.860 384.000 1.000
20.870 398.000 1.000
20.880 434.000 1.000
20.890 420.000 1.000
20.900 402.000 1.000
20.910 410.000 1.000
20.920 401.000 1.000
20.930 386.000 1.000
20.940 431.000 1.000
20.950 410.000 1.000
20.960 423.000 1.000
20.970 398.000 1.000
20.980 425.000 1.000
20.990 437.000 1.000
21.000 450.000 1.000
21.010 426.000 1.000
21.020 449.000 1.000
21.030 472.000 1.000
21.040 457.000 1.000
21.050 453.000 1.000
21.060 425.000 1.000
21.070 405.000 1.000
21.080 408.000 1.000
21.090 408.000 1.000
21.100 387.000 1.000
21.110 389.000 1.000
21.120 360.000 1.000
21.130 351.000 1.000
21.140 368.000 1.000
21.150 360.000 1.000
21.160 352.000 1.000
21.170 377.000 1.000
21.180 365.000 1.000
21.190 366.000 1.000
21.200 342.000 1.000
21.210 312.000 1.000
21.220 319.000 1.000
21.230 320.000 1.000
21.240 328.000 1.000
21.250 323.000 1.000
21.260 345.000 1.000
21.270 349.000 1.000
21.280 348.000 1.000
21.290 342.000 1.000
21.300 337.000 1.000
21.310 348.000 1.000
21.320 343.000 1.000
21.330 344.000 1.000
21.340 339.000 1.000
21.350 296.000 1.000
21.360 298.000 1.000
21.370 303.000 1.000
21.380 291.000 1.000
21.390 284.000 1.000
21.400 276.000 1.000
21.410 294.000 1.000
21.420 290.000 1.000
21.430 288.000 1.000
21.440 272.000 1.000
21.450 279.000 1.000
21.460 303.000 1.000
21.470 286.000 1.000
21.480 280.000 1.000
21.490 282.000 1.000
21.500 283.000 1.000
21.510 283.000 1.000
21.520 298.000 1.000
21.530 271.000 1.000
21.540 283.000 1.000
21.550 282.000 1.000
21.560 269.000 1.000
21.570 286.000 1.000
21.580 293.000 1.000
21.590 291.000 1.000
21.600 295.000 1.000
21.610 268.000 1.000
21.620 283.000 1.000
21.630 284.000 1.000
21.640 261.000 1.000
21.650 272.000 1.000
21.660 295.000 1.000
21.670 271.000 1.000
21.680 260.000 1.000
21.690 266.000 1.000
21.700 256.000 1.000
21.710 268.000 1.000
21.720 284.000 1.000
21.730 271.000 1.000
21.740 278.000 1.000
21.750 308.000 1.000
21.760 287.000 1.000
21.770 307.000 1.000
21.780 289.000 1.000
21.790 276.000 1.000
21.800 286.000 1.000
21.810 288.000 1.000
21.820 306.000 1.000
21.830 301.000 1.000
21.840 320.000 1.000
21.850 317.000 1.000
21.860 297.000 1.000
21.870 291.000 1.000
21.880 294.000 1.000
21.890 294.000 1.000
21.900 307.000 1.000
21.910 298.000 1.000
21.920 299.000 1.000
21.930 299.000 1.000
21.940 310.000 1.000
21.950 315.000 1.000
21.960 294.000 1.000
21.970 273.000 1.000
21.980 303.000 1.000
21.990 305.000 1.000
22.000 287.000 1.000
22.010 305.000 1.000
22.020 314.000 1.000
22.030 308.000 1.000
22.040 297.000 1.000
22.050 315.000 1.000
22.060 322.000 1.000
22.070 304.000 1.000
22.080 287.000 1.000
22.090 316.000 1.000
22.100 319.000 1.000
22.110 297.000 1.000
22.120 314.000 1.000
22.130 322.000 1.000
22.140 304.000 1.000
22.150 285.000 1.000
22.160 301.000 1.000
22.170 293.000 1.000
22.180 300.000 1.000
22.190 309.000 1.000
22.200 325.000 1.000
22.210 309.000 1.000
22.220 314.000 1.000
22.230 321.000 1.000
22.240 310.000 1.000
22.250 311.000 1.000
22.260 330.000 1.000
22.270 349.000 1.000
22.280 349.000 1.000
22.290 350.000 1.000
22.300 327.000 1.000
22.310 339.000 1.000
22.320 335.000 1.000
22.330 332.000 1.000
22.340 348.000 1.000
22.350 333.000 1.000
22.360 343.000 1.000
22.370 348.000 1.000
22.380 315.000 1.000
22.390 309.000 1.000
22.400 333.000 1.000
22.410 330.000 1.000
22.420 348.000 1.000
22.430 338.000 1.000
22.440 344.000 1.000
22.450 372.000 1.000
22.460 358.000 1.000
22.470 356.000 1.000
22.480 360.000 1.000
22.490 366.000 1.000
22.500 389.000 1.000
22.510 390.000 1.000
22.520 395.000 1.000
22.530 424.000 1.000
22.540 433.000 1.000
22.550 459.000 1.000
22.560 518.000 1.000
22.570 519.000 1.000
22.580 552.000 1.000
22.590 577.000 1.000
22.600 611.000 1.000
22.610 633.000 1.000
22.620 651.000 1.000
22.630 683.000 1.000
22.640 750.000 1.000
22.650 745.000 1.000
22.660 769.000 1.000
22.670 801.000 1.000
22.680 799.000 1.000
22.690 784.000 1.000
22.700 749.000 1.000
22.710 744.000 1.000
22.720 695.000 1.000
22.730 672.000 1.000
22.740 673.000 1.000
22.750 627.000 1.000
22.760 607.000 1.000
22.770 608.000 1.000
22.780 567.000 1.000
22.790 545.000 1.000
22.800 513.000 1.000
22.810 496.000 1.000
22.820 473.000 1.000
22.830 442.000 1.000
22.840 427.000 1.000
22.850 382.000 1.000
22.860 352.000 1.000
22.870 351.000 1.000
22.880 366.000 1.000
22.890 358.000 1.000
22.900 332.000 1.000
22.910 311.000 1.000
22.920 306.000 1.000
22.930 299.000 1.000
22.940 289.000 1.000
22.950 284.000 1.000
22.960 293.000 1.000
22.970 310.000 1.000
22.980 307.000 1.000
22.990 297.000 1.000
23.000 290.000 1.000
23.010 302.000 1.000
23.020 276.000 1.000
23.030 283.000 1.000
23.040 298.000 1.000
23.050 288.000 1.000
23.060 268.000 1.000
23.070 289.000 1.000
23.080 284.000 1.000
23.090 289.000 1.000
23.100 304.000 1.000
23.110 302.000 1.000
23.120 284.000 1.000
23.130 262.000 1.000
23.140 260.000 1.000
23.150 263.000 1.000
23.160 272.000 1.000
23.170 295.000 1.000
23.180 301.000 1.000
23.190 286.000 1.000
23.200 282.000 1.000
23.210 274.000 1.000
23.220 273.000 1.000
23.230 273.000 1.000
23.240 278.000 1.000
23.250 284.000 1.000
23.260 305.000 1.000
23.270 333.000 1.000
23.280 311.000 1.000
23.290 275.000 1.000
23.300 278.000 1.000
23.310 299.000 1.000
23.320 287.000 1.000
23.330 283.000 1.000
23.340 292.000 1.000
23.350 302.000 1.000
23.360 315.000 1.000
23.370 323.000 1.000
23.380 328.000 1.000
23.390 336.000 1.000
23.400 325.000 1.000
23.410 345.000 1.000
23.420 316.000 1.000
23.430 342.000 1.000
23.440 329.000 1.000
23.450 331.000 1.000
23.460 366.000 1.000
23.470 358.000 1.000
23.480 349.000 1.000
23.490 327.000 1.000
23.500 336.000 1.000
23.510 332.000 1.000
23.520 328.000 1.000
23.530 334.000 1.000
23.540 339.000 1.000
23.550 331.000 1.000
23.560 327.000 1.000
23.570 306.000 1.000
23.580 321.000 1.000
23.590 308.000 1.000
23.600 314.000 1.000
23.610 321.000 1.000
23.620 301.000 1.000
23.630 296.000 1.000
23.640 294.000 1.000
23.650 275.000 1.000
23.660 289.000 1.000
23.670 282.000 1.000
23.680 266.000 1.000
23.690 273.000 1.000
23.700 268.000 1.000
23.710 263.000 1.000
23.720 286.000 1.000
23.730 270.000 1.000
23.740 254.000 1.000
23.750 285.000 1.000
23.760 282.000 1.000
23.770 293.000 1.000
23.780 286.000 1.000
23.790 288.000 1.000
23.800 303.000 1.000
23.810 309.000 1.000
23.820 277.000 1.000
23.830 283.000 1.000
23.840 282.000 1.000
23.850 288.000 1.000
23.860 313.000 1.000
23.870 348.000 1.000
23.880 344.000 1.000
23.890 335.000 1.000
23.900 326.000 1.000
23.910 368.000 1.000
23.920 367.000 1.000
23.930 396.000 1.000
23.940 403.000 1.000
23.950 432.000 1.000
23.960 420.000 1.000
23.970 436.000 1.000
23.980 426.000 1.000
23.990 450.000 1.000
24.000 483.000 1.000
24.010 478.000 1.000
24.020 494.000 1.000
24.030 513.000 1.000
24.040 514.000 1.000
24.050 522.000 1.000
24.060 508.000 1.000
24.070 471.000 1.000
24.080 464.000 1.000
24.090 456.000 1.000
24.100 460.000 1.000
24.110 434.000 1.000
24.120 401.000 1.000
24.130 431.000 1.000
24.140 433.000 1.000
24.150 403.000 1.000
24.160 375.000 1.000
24.170 381.000 1.000
24.180 366.000 1.000
24.190 391.000 1.000
24.200 407.000 1.000
24.210 414.000 1.000
24.220 425.000 1.000
24.230 430.000 1.000
24.240 422.000 1.000
24.250 445.000 1.000
24.260 481.000 1.000
24.270 489.000 1.000
24.280 492.000 1.000
24.290 540.000 1.000
24.300 569.000 1.000
24.310 625.000 1.000
24.320 682.000 1.000
24.330 699.000 1.000
24.340 733.000 1.000
24.350 813.000 1.000
24.360 845.000 1.000
24.370 908.000 1.000
24.380 969.000 1.000
24.390 1010.000 1.000
24.400 1022.000 1.000
24.410 1102.000 1.000
24.420 1112.000 1.000
24.430 1064.000 1.000
24.440 1071.000 1.000
24.450 1053.000 1.000
24.460 1004.000 1.000
24.470 976.000 1.000
24.480 904.000 1.000
24.490 862.000 1.000
24.500 846.000 1.000
24.510 747.000 1.000
24.520 687.000 1.000
24.530 621.000 1.000
24.540 578.000 1.000
24.550 543.000 1.000
24.560 501.000 1.000
24.570 449.000 1.000
24.580 419.000 1.000
24.590 446.000 1.000
24.600 425.000 1.000
24.610 377.000 1.000
24.620 354.000 1.000
24.630 362.000 1.000
24.640 385.000 1.000
24.650 341.000 1.000
24.660 334.000 1.000
24.670 329.000 1.000
24.680 334.000 1.000
24.690 300.000 1.000
24.700 291.000 1.000
24.710 310.000 1.000
24.720 324.000 1.000
24.730 307.000 1.000
24.740 317.000 1.000
24.750 314.000 1.000
24.760 321.000 1.000
24.770 318.000 1.000
24.780 314.000 1.000
24.790 328.000 1.000
24.800 311.000 1.000
24.810 301.000 1.000
24.820 309.000 1.000
24.830 316.000 1.000
24.840 296.000 1.000
24.850 317.000 1.000
24.860 314.000 1.000
24.870 301.000 1.000
24.880 308.000 1.000
24.890 311.000 1.000
24.900 291.000 1.000
24.910 269.000 1.000
24.920 297.000 1.000
24.930 287.000 1.000
24.940 307.000 1.000
24.950 301.000 1.000
24.960 317.000 1.000
24.970 312.000 1.000
24.980 309.000 1.000
24.990 302.000 1.000
25.000 302.000 1.000
25.010 290.000 1.000
25.020 291.000 1.000
25.030 317.000 1.000
25.040 310.000 1.000
25.050 307.000 1.000
25.060 312.000 1.000
25.070 300.000 1.000
25.080 328.000 1.000
25.090 350.000 1.000
25.100 323.000 1.000
25.110 329.000 1.000
25.120 326.000 1.000
25.130 335.000 1.000
25.140 354.000 1.000
25.150 417.000 1.000
25.160 413.000 1.000
25.170 420.000 1.000
25.180 399.000 1.000
25.190 444.000 1.000
25.200 476.000 1.000
25.210 480.000 1.000
25.220 474.000 1.000
25.230 496.000 1.000
25.240 526.000 1.000
25.250 518.000 1.000
25.260 526.000 1.000
25.270 542.000 1.000
25.280 529.000 1.000
25.290 517.000 1.000
25.300 503.000 1.000
25.310 499.000 1.000
25.320 533.000 1.000
25.330 530.000 1.000
25.340 497.000 1.000
25.350 489.000 1.000
25.360 452.000 1.000
25.370 449.000 1.000
25.380 433.000 1.000
25.390 406.000 1.000
25.400 381.000 1.000
25.410 381.000 1.000
25.420 344.000 1.000
25.430 352.000 1.000
25.440 388.000 1.000
25.450 380.000 1.000
25.460 379.000 1.000
25.470 341.000 1.000
25.480 318.000 1.000
25.490 314.000 1.000
25.500 328.000 1.000
25.510 312.000 1.000
25.520 308.000 1.000
25.530 312.000 1.000
25.540 274.000 1.000
25.550 282.000 1.000
25.560 311.000 1.000
25.570 319.000 1.000
25.580 301.000 1.000
25.590 296.000 1.000
25.600 317.000 1.000
25.610 282.000 1.000
25.620 287.000 1.000
25.630 305.000 1.000
25.640 294.000 1.000
25.650 291.000 1.000
25.660 264.000 1.000
25.670 264.000 1.000
25.680 266.000 1.000
25.690 287.000 1.000
25.700 297.000 1.000
25.710 294.000 1.000
25.720 272.000 1.000
25.730 273.000 1.000
25.740 292.000 1.000
25.750 291.000 1.000
25.760 259.000 1.000
25.770 267.000 1.000
25.780 278.000 1.000
25.790 272.000 1.000
25.800 274.000 1.000
25.810 292.000 1.000
25.820 278.000 1.000
25.830 264.000 1.000
25.840 282.000 1.000
25.850 286.000 1.000
25.860 281.000 1.000
25.870 264.000 1.000
25.880 279.000 1.000
25.890 281.000 1.000
25.900 280.000 1.000
25.910 281.000 1.000
25.920 290.000 1.000
25.930 289.000 1.000
25.940 276.000 1.000
25.950 274.000 1.000
25.960 287.000 1.000
25.970 280.000 1.000
25.980 284.000 1.000
25.990 300.000 1.000
26.000 328.000 1.000
26.010 332.000 1.000
26.020 293.000 1.000
26.030 305.000 1.000
26.040 294.000 1.000
26.050 314.000 1.000
26.060 307.000 1.000
26.070 325.000 1.000
26.080 329.000 1.000
26.090 316.000 1.000
26.100 328.000 1.000
26.110 347.000 1.000
26.120 334.000 1.000
26.130 339.000 1.000
26.140 365.000 1.000
26.150 393.000 1.000
26.160 402.000 1.000
26.170 400.000 1.000
26.180 416.000 1.000
26.190 427.000 1.000
26.200 423.000 1.000
26.210 451.000 1.000
26.220 472.000 1.000
26.230 473.000 1.000
26.240 525.000 1.000
26.250 526.000 1.000
26.260 508.000 1.000
26.270 516.000 1.000
26.280 521.000 1.000
26.290 513.000 1.000
26.300 534.000 1.000
26.310 528.000 1.000
26.320 492.000 1.000
26.330 509.000 1.000
26.340 505.000 1.000
26.350 509.000 1.000
26.360 483.000 1.000
26.370 454.000 1.000
26.380 484.000 1.000
26.390 480.000 1.000
26.400 454.000 1.000
26.410 440.000 1.000
26.420 436.000 1.000
26.430 454.000 1.000
26.440 463.000 1.000
26.450 491.000 1.000
26.460 474.000 1.000
26.470 476.000 1.000
26.480 463.000 1.000
26.490 478.000 1.000
26.500 484.000 1.000
26.510 516.000 1.000
26.520 521.000 1.000
26.530 540.000 1.000
26.540 527.000 1.000
26.550 504.000 1.000
26.560 490.000 1.000
26.570 476.000 1.000
26.580 489.000 1.000
26.590 492.000 1.000
26.600 481.000 1.000
26.610 467.000 1.000
26.620 426.000 1.000
26.630 423.000 1.000
26.640 398.000 1.000
26.650 384.000 1.000
26.660 388.000 1.000
26.670 386.000 1.000
26.680 390.000 1.000
26.690 364.000 1.000
26.700 325.000 1.000
26.710 364.000 1.000
26.720 330.000 1.000
26.730 314.000 1.000
26.740 312.000 1.000
26.750 307.000 1.000
26.760 319.000 1.000
26.770 300.000 1.000
26.780 301.000 1.000
26.790 302.000 1.000
26.800 306.000 1.000
26.810 288.000 1.000
26.820 293.000 1.000
26.830 295.000 1.000
26.840 281.000 1.000
26.850 293.000 1.000
26.860 299.000 1.000
26.870 283.000 1.000
26.880 272.000 1.000
26.890 254.000 1.000
26.900 248.000 1.000
26.910 251.000 1.000
26.920 267.000 1.000
26.930 266.000 1.000
26.940 266.000 1.000
26.950 261.000 1.000
26.960 265.000 1.000
26.970 278.000 1.000
26.980 277.000 1.000
26.990 287.000 1.000
27.000 258.000 1.000
27.010 258.000 1.000
27.020 267.000 1.000
27.030 265.000 1.000
27.040 257.000 1.000
27.050 265.000 1.000
27.060 258.000 1.000
27.070 276.000 1.000
27.080 286.000 1.000
27.090 283.000 1.000
27.100 279.000 1.000
27.110 275.000 1.000
27.120 264.000 1.000
27.130 266.000 1.000
27.140 264.000 1.000
27.150 266.000 1.000
27.160 260.000 1.000
27.170 266.000 1.000
27.180 285.000 1.000
27.190 300.000 1.000
27.200 292.000 1.000
27.210 265.000 1.000
27.220 265.000 1.000
27.230 268.000 1.000
27.240 266.000 1.000
27.250 255.000 1.000
27.260 288.000 1.000
27.270 290.000 1.000
27.280 293.000 1.000
27.290 288.000 1.000
27.300 291.000 1.000
27.310 284.000 1.000
27.320 272.000 1.000
27.330 274.000 1.000
27.340 281.000 1.000
27.350 280.000 1.000
27.360 286.000 1.000
27.370 308.000 1.000
27.380 323.000 1.000
27.390 309.000 1.000
27.400 307.000 1.000
27.410 296.000 1.000
27.420 295.000 1.000
27.430 299.000 1.000
27.440 324.000 1.000
27.450 313.000 1.000
27.460 293.000 1.000
27.470 311.000 1.000
27.480 310.000 1.000
27.490 301.000 1.000
27.500 304.000 1.000
27.510 318.000 1.000
27.520 299.000 1.000
27.530 315.000 1.000
27.540 316.000 1.000
27.550 301.000 1.000
27.560 289.000 1.000
27.570 302.000 1.000
27.580 304.000 1.000
27.590 304.000 1.000
27.600 314.000 1.000
27.610 306.000 1.000
27.620 304.000 1.000
27.630 325.000 1.000
27.640 338.000 1.000
27.650 318.000 1.000
27.660 325.000 1.000
27.670 312.000 1.000
27.680 303.000 1.000
27.690 327.000 1.000
27.700 316.000 1.000
27.710 310.000 1.000
27.720 318.000 1.000
27.730 320.000 1.000
27.740 320.000 1.000
27.750 318.000 1.000
27.760 344.000 1.000
27.770 339.000 1.000
27.780 318.000 1.000
27.790 296.000 1.000
27.800 305.000 1.000
27.810 316.000 1.000
27.820 304.000 1.000
27.830 291.000 1.000
27.840 298.000 1.000
27.850 319.000 1.000
27.860 298.000 1.000
27.870 282.000 1.000
27.880 264.000 1.000
27.890 274.000 1.000
27.900 279.000 1.000
27.910 270.000 1.000
27.920 284.000 1.000
27.930 262.000 1.000
27.940 256.000 1.000
27.950 235.000 1.000
27.960 247.000 1.000
27.970 267.000 1.000
27.980 267.000 1.000
27.990 255.000 1.000
28.000 258.000 1.000
28.010 253.000 1.000
28.020 241.000 1.000
28.030 236.000 1.000
28.040 251.000 1.000
28.050 250.000 1.000
28.060 236.000 1.000
28.070 252.000 1.000
28.080 248.000 1.000
28.090 268.000 1.000
28.100 249.000 1.000
28.110 248.000 1.000
28.120 244.000 1.000
28.130 277.000 1.000
28.140 252.000 1.000
28.150 247.000 1.000
28.160 241.000 1.000
28.170 248.000 1.000
28.180 255.000 1.000
28.190 250.000 1.000
28.200 256.000 1.000
28.210 245.000 1.000
28.220 242.000 1.000
28.230 241.000 1.000
28.240 244.000 1.000
28.250 245.000 1.000
28.260 253.000 1.000
28.270 252.000 1.000
28.280 228.000 1.000
28.290 248.000 1.000
28.300 260.000 1.000
28.310 251.000 1.000
28.320 252.000 1.000
28.330 246.000 1.000
28.340 265.000 1.000
28.350 251.000 1.000
28.360 254.000 1.000
28.370 263.000 1.000
28.380 267.000 1.000
28.390 275.000 1.000
28.400 279.000 1.000
28.410 281.000 1.000
28.420 292.000 1.000
28.430 299.000 1.000
28.440 291.000 1.000
28.450 301.000 1.000
28.460 306.000 1.000
28.470 323.000 1.000
28.480 326.000 1.000
28.490 313.000 1.000
28.500 326.000 1.000
28.510 341.000 1.000
28.520 341.000 1.000
28.530 334.000 1.000
28.540 352.000 1.000
28.550 345.000 1.000
28.560 383.000 1.000
28.570 355.000 1.000
28.580 316.000 1.000
28.590 321.000 1.000
28.600 343.000 1.000
28.610 326.000 1.000
28.620 317.000 1.000
28.630 305.000 1.000
28.640 321.000 1.000
28.650 321.000 1.000
28.660 292.000 1.000
28.670 303.000 1.000
28.680 299.000 1.000
28.690 281.000 1.000
28.700 282.000 1.000
28.710 284.000 1.000
28.720 262.000 1.000
28.730 266.000 1.000
28.740 265.000 1.000
28.750 245.000 1.000
28.760 266.000 1.000
28.770 270.000 1.000
28.780 247.000 1.000
28.790 253.000 1.000
28.800 239.000 1.000
28.810 231.000 1.000
28.820 270.000 1.000
28.830 278.000 1.000
28.840 256.000 1.000
28.850 257.000 1.000
28.860 250.000 1.000
28.870 239.000 1.000
28.880 258.000 1.000
28.890 261.000 1.000
28.900 243.000 1.000
28.910 239.000 1.000
28.920 238.000 1.000
28.930 256.000 1.000
28.940 254.000 1.000
28.950 273.000 1.000
28.960 270.000 1.000
28.970 252.000 1.000
28.980 269.000 1.000
28.990 262.000 1.000
29.000 257.000 1.000
29.010 246.000 1.000
29.020 249.000 1.000
29.030 258.000 1.000
29.040 246.000 1.000
29.050 257.000 1.000
29.060 251.000 1.000
29.070 245.000 1.000
29.080 256.000 1.000
29.090 256.000 1.000
29.100 267.000 1.000
29.110 259.000 1.000
29.120 241.000 1.000
29.130 242.000 1.000
29.140 253.000 1.000
29.150 233.000 1.000
29.160 246.000 1.000
29.170 256.000 1.000
29.180 265.000 1.000
29.190 277.000 1.000
29.200 256.000 1.000
29.210 256.000 1.000
29.220 276.000 1.000
29.230 259.000 1.000
29.240 254.000 1.000
29.250 257.000 1.000
29.260 257.000 1.000
29.270 271.000 1.000
29.280 261.000 1.000
29.290 263.000 1.000
29.300 274.000 1.000
29.310 267.000 1.000
29.320 256.000 1.000
29.330 260.000 1.000
29.340 268.000 1.000
29.350 250.000 1.000
29.360 272.000 1.000
29.370 287.000 1.000
29.380 273.000 1.000
29.390 257.000 1.000
29.400 274.000 1.000
29.410 291.000 1.000
29.420 276.000 1.000
29.430 273.000 1.000
29.440 269.000 1.000
29.450 258.000 1.000
29.460 261.000 1.000
29.470 279.000 1.000
29.480 293.000 1.000
29.490 303.000 1.000
29.500 307.000 1.000
29.510 302.000 1.000
29.520 291.000 1.000
29.530 287.000 1.000
29.540 303.000 1.000
29.550 336.000 1.000
29.560 314.000 1.000
29.570 321.000 1.000
29.580 318.000 1.000
29.590 320.000 1.000
29.600 307.000 1.000
29.610 314.000 1.000
29.620 309.000 1.000
29.630 296.000 1.000
29.640 287.000 1.000
29.650 286.000 1.000
29.660 274.000 1.000
29.670 269.000 1.000
29.680 266.000 1.000
29.690 278.000 1.000
29.700 271.000 1.000
29.710 258.000 1.000
29.720 266.000 1.000
29.730 258.000 1.000
29.740 259.000 1.000
29.750 275.000 1.000
29.760 263.000 1.000
29.770 258.000 1.000
29.780 250.000 1.000
29.790 257.000 1.000
29.800 250.000 1.000
29.810 251.000 1.000
29.820 262.000 1.000
29.830 248.000 1.000
29.840 243.000 1.000
29.850 260.000 1.000
29.860 250.000 1.000
29.870 240.000 1.000
29.880 258.000 1.000
29.890 256.000 1.000
29.900 256.000 1.000
29.910 246.000 1.000
29.920 244.000 1.000
29.930 255.000 1.000
29.940 235.000 1.000
29.950 239.000 1.000
29.960 242.000 1.000
29.970 251.000 1.000
29.980 256.000 1.000
29.990 242.000 1.000
30.000 240.000 1.000
30.010 250.000 1.000
30.020 238.000 1.000
30.030 273.000 1.000
30.040 262.000 1.000
30.050 255.000 1.000
30.060 257.000 1.000
30.070 254.000 1.000
30.080 270.000 1.000
30.090 265.000 1.000
30.100 260.000 1.000
30.110 260.000 1.000
30.120 252.000 1.000
30.130 252.000 1.000
30.140 254.000 1.000
30.150 254.000 1.000
30.160 270.000 1.000
30.170 273.000 1.000
30.180 244.000 1.000
30.190 252.000 1.000
30.200 280.000 1.000
30.210 275.000 1.000
30.220 280.000 1.000
30.230 280.000 1.000
30.240 292.000 1.000
30.250 283.000 1.000
30.260 266.000 1.000
30.270 283.000 1.000
30.280 314.000 1.000
30.290 341.000 1.000
30.300 344.000 1.000
30.310 315.000 1.000
30.320 340.000 1.000
30.330 371.000 1.000
30.340 369.000 1.000
30.350 412.000 1.000
30.360 423.000 1.000
30.370 414.000 1.000
30.380 412.000 1.000
30.390 436.000 1.000
30.400 445.000 1.000
30.410 475.000 1.000
30.420 502.000 1.000
30.430 498.000 1.000
30.440 504.000 1.000
30.450 497.000 1.000
30.460 485.000 1.000
30.470 478.000 1.000
30.480 465.000 1.000
30.490 480.000 1.000
30.500 497.000 1.000
30.510 482.000 1.000
30.520 441.000 1.000
30.530 414.000 1.000
30.540 418.000 1.000
30.550 423.000 1.000
30.560 408.000 1.000
30.570 401.000 1.000
30.580 362.000 1.000
30.590 348.000 1.000
30.600 346.000 1.000
30.610 326.000 1.000
30.620 314.000 1.000
30.630 318.000 1.000
30.640 292.000 1.000
30.650 278.000 1.000
30.660 284.000 1.000
30.670 264.000 1.000
30.680 265.000 1.000
30.690 266.000 1.000
30.700 257.000 1.000
30.710 266.000 1.000
30.720 256.000 1.000
30.730 257.000 1.000
30.740 266.000 1.000
30.750 267.000 1.000
30.760 267.000 1.000
30.770 247.000 1.000
30.780 265.000 1.000
30.790 279.000 1.000
30.800 258.000 1.000
30.810 244.000 1.000
30.820 246.000 1.000
30.830 252.000 1.000
30.840 254.000 1.000
30.850 277.000 1.000
30.860 285.000 1.000
30.870 272.000 1.000
30.880 271.000 1.000
30.890 258.000 1.000
30.900 251.000 1.000
30.910 239.000 1.000
30.920 242.000 1.000
30.930 239.000 1.000
30.940 248.000 1.000
30.950 246.000 1.000
30.960 238.000 1.000
30.970 240.000 1.000
30.980 241.000 1.000
30.990 231.000 1.000
31.000 244.000 1.000
31.010 274.000 1.000
31.020 259.000 1.000
31.030 235.000 1.000
31.040 235.000 1.000
31.050 252.000 1.000
31.060 266.000 1.000
31.070 254.000 1.000
31.080 252.000 1.000
31.090 239.000 1.000
31.100 241.000 1.000
31.110 234.000 1.000
31.120 248.000 1.000
31.130 255.000 1.000
31.140 251.000 1.000
31.150 244.000 1.000
31.160 248.000 1.000
31.170 238.000 1.000
31.180 240.000 1.000
31.190 254.000 1.000
31.200 258.000 1.000
31.210 255.000 1.000
31.220 262.000 1.000
31.230 266.000 1.000
31.240 244.000 1.000
31.250 259.000 1.000
31.260 245.000 1.000
31.270 225.000 1.000
31.280 257.000 1.000
31.290 259.000 1.000
31.300 248.000 1.000
31.310 234.000 1.000
31.320 241.000 1.000
31.330 246.000 1.000
31.340 251.000 1.000
31.350 248.000 1.000
31.360 273.000 1.000
31.370 257.000 1.000
31.380 259.000 1.000
31.390 256.000 1.000
31.400 264.000 1.000
31.410 270.000 1.000
31.420 254.000 1.000
31.430 266.000 1.000
31.440 258.000 1.000
31.450 259.000 1.000
31.460 256.000 1.000
31.470 269.000 1.000
31.480 257.000 1.000
31.490 265.000 1.000
31.500 260.000 1.000
31.510 291.000 1.000
31.520 281.000 1.000
31.530 264.000 1.000
31.540 294.000 1.000
31.550 270.000 1.000
31.560 275.000 1.000
31.570 260.000 1.000
31.580 259.000 1.000
31.590 261.000 1.000
31.600 247.000 1.000
31.610 257.000 1.000
31.620 264.000 1.000
31.630 271.000 1.000
31.640 268.000 1.000
31.650 246.000 1.000
31.660 261.000 1.000
31.670 278.000 1.000
31.680 273.000 1.000
31.690 265.000 1.000
31.700 258.000 1.000
31.710 283.000 1.000
31.720 285.000 1.000
31.730 283.000 1.000
31.740 285.000 1.000
31.750 307.000 1.000
31.760 295.000 1.000
31.770 329.000 1.000
31.780 337.000 1.000
31.790 350.000 1.000
31.800 351.000 1.000
31.810 358.000 1.000
31.820 370.000 1.000
31.830 423.000 1.000
31.840 397.000 1.000
31.850 369.000 1.000
31.860 385.000 1.000
31.870 404.000 1.000
31.880 394.000 1.000
31.890 377.000 1.000
31.900 364.000 1.000
31.910 386.000 1.000
31.920 398.000 1.000
31.930 372.000 1.000
31.940 378.000 1.000
31.950 375.000 1.000
31.960 360.000 1.000
31.970 329.000 1.000
31.980 314.000 1.000
31.990 292.000 1.000
32.000 293.000 1.000
32.010 286.000 1.000
32.020 294.000 1.000
32.030 290.000 1.000
32.040 293.000 1.000
32.050 291.000 1.000
32.060 268.000 1.000
32.070 274.000 1.000
32.080 275.000 1.000
32.090 309.000 1.000
32.100 285.000 1.000
32.110 274.000 1.000
32.120 287.000 1.000
32.130 270.000 1.000
32.140 265.000 1.000
32.150 257.000 1.000
32.160 248.000 1.000
32.170 271.000 1.000
32.180 290.000 1.000
32.190 284.000 1.000
32.200 278.000 1.000
32.210 308.000 1.000
32.220 298.000 1.000
32.230 283.000 1.000
32.240 298.000 1.000
32.250 315.000 1.000
32.260 328.000 1.000
32.270 318.000 1.000
32.280 300.000 1.000
32.290 275.000 1.000
32.300 283.000 1.000
32.310 267.000 1.000
32.320 265.000 1.000
32.330 280.000 1.000
32.340 273.000 1.000
32.350 283.000 1.000
32.360 279.000 1.000
32.370 276.000 1.000
32.380 281.000 1.000
32.390 275.000 1.000
32.400 277.000 1.000
32.410 270.000 1.000
32.420 257.000 1.000
32.430 253.000 1.000
32.440 261.000 1.000
32.450 258.000 1.000
32.460 262.000 1.000
32.470 267.000 1.000
32.480 264.000 1.000
32.490 252.000 1.000
32.500 294.000 1.000
32.510 289.000 1.000
32.520 264.000 1.000
32.530 272.000 1.000
32.540 261.000 1.000
32.550 267.000 1.000
32.560 261.000 1.000
32.570 268.000 1.000
32.580 279.000 1.000
32.590 252.000 1.000
32.600 250.000 1.000
32.610 277.000 1.000
32.620 280.000 1.000
32.630 262.000 1.000
32.640 258.000 1.000
32.650 260.000 1.000
32.660 276.000 1.000
32.670 287.000 1.000
32.680 266.000 1.000
32.690 258.000 1.000
32.700 269.000 1.000
32.710 272.000 1.000
32.720 298.000 1.000
32.730 314.000 1.000
32.740 294.000 1.000
32.750 282.000 1.000
32.760 302.000 1.000
32.770 313.000 1.000
32.780 298.000 1.000
32.790 331.000 1.000
32.800 337.000 1.000
32.810 364.000 1.000
32.820 348.000 1.000
32.830 367.000 1.000
32.840 367.000 1.000
32.850 382.000 1.000
32.860 396.000 1.000
32.870 405.000 1.000
32.880 409.000 1.000
32.890 392.000 1.000
32.900 410.000 1.000
32.910 438.000 1.000
32.920 454.000 1.000
32.930 447.000 1.000
32.940 421.000 1.000
32.950 372.000 1.000
32.960 388.000 1.000
32.970 388.000 1.000
32.980 376.000 1.000
32.990 376.000 1.000
33.000 392.000 1.000
33.010 366.000 1.000
33.020 373.000 1.000
33.030 370.000 1.000
33.040 360.000 1.000
33.050 331.000 1.000
33.060 338.000 1.000
33.070 331.000 1.000
33.080 324.000 1.000
33.090 317.000 1.000
33.100 322.000 1.000
33.110 324.000 1.000
33.120 352.000 1.000
33.130 337.000 1.000
33.140 331.000 1.000
33.150 312.000 1.000
33.160 324.000 1.000
33.170 341.000 1.000
33.180 322.000 1.000
33.190 304.000 1.000
33.200 334.000 1.000
33.210 328.000 1.000
33.220 355.000 1.000
33.230 337.000 1.000
33.240 339.000 1.000
33.250 327.000 1.000
33.260 315.000 1.000
33.270 304.000 1.000
33.280 301.000 1.000
33.290 317.000 1.000
33.300 304.000 1.000
33.310 286.000 1.000
33.320 285.000 1.000
33.330 267.000 1.000
33.340 265.000 1.000
33.350 281.000 1.000
33.360 293.000 1.000
33.370 280.000 1.000
33.380 286.000 1.000
33.390 259.000 1.000
33.400 249.000 1.000
33.410 273.000 1.000
33.420 280.000 1.000
33.430 268.000 1.000
33.440 275.000 1.000
33.450 278.000 1.000
33.460 264.000 1.000
33.470 276.000 1.000
33.480 281.000 1.000
33.490 264.000 1.000
33.500 253.000 1.000
33.510 261.000 1.000
33.520 256.000 1.000
33.530 269.000 1.000
33.540 269.000 1.000
33.550 287.000 1.000
33.560 296.000 1.000
33.570 278.000 1.000
33.580 276.000 1.000
33.590 268.000 1.000
33.600 298.000 1.000
33.610 273.000 1.000
33.620 290.000 1.000
33.630 289.000 1.000
33.640 286.000 1.000
33.650 280.000 1.000
33.660 273.000 1.000
33.670 264.000 1.000
33.680 291.000 1.000
33.690 294.000 1.000
33.700 289.000 1.000
33.710 305.000 1.000
33.720 305.000 1.000
33.730 294.000 1.000
33.740 297.000 1.000
33.750 291.000 1.000
33.760 308.000 1.000
33.770 296.000 1.000
33.780 312.000 1.000
33.790 318.000 1.000
33.800 318.000 1.000
33.810 338.000 1.000
33.820 348.000 1.000
33.830 352.000 1.000
33.840 383.000 1.000
33.850 365.000 1.000
33.860 359.000 1.000
33.870 398.000 1.000
33.880 379.000 1.000
33.890 362.000 1.000
33.900 395.000 1.000
33.910 407.000 1.000
33.920 404.000 1.000
33.930 418.000 1.000
33.940 407.000 1.000
33.950 389.000 1.000
33.960 375.000 1.000
33.970 380.000 1.000
33.980 371.000 1.000
33.990 380.000 1.000
34.000 405.000 1.000
34.010 377.000 1.000
34.020 361.000 1.000
34.030 353.000 1.000
34.040 371.000 1.000
34.050 345.000 1.000
34.060 319.000 1.000
34.070 331.000 1.000
34.080 338.000 1.000
34.090 329.000 1.000
34.100 329.000 1.000
34.110 305.000 1.000
34.120 316.000 1.000
34.130 328.000 1.000
34.140 320.000 1.000
34.150 302.000 1.000
34.160 285.000 1.000
34.170 310.000 1.000
34.180 304.000 1.000
34.190 292.000 1.000
34.200 293.000 1.000
34.210 282.000 1.000
34.220 305.000 1.000
34.230 318.000 1.000
34.240 335.000 1.000
34.250 306.000 1.000
34.260 323.000 1.000
34.270 355.000 1.000
34.280 356.000 1.000
34.290 309.000 1.000
34.300 295.000 1.000
34.310 317.000 1.000
34.320 344.000 1.000
34.330 331.000 1.000
34.340 319.000 1.000
34.350 320.000 1.000
34.360 333.000 1.000
34.370 333.000 1.000
34.380 323.000 1.000
34.390 319.000 1.000
34.400 339.000 1.000
34.410 323.000 1.000
34.420 324.000 1.000
34.430 328.000 1.000
34.440 326.000 1.000
34.450 310.000 1.000
34.460 301.000 1.000
34.470 309.000 1.000
34.480 287.000 1.000
34.490 283.000 1.000
34.500 287.000 1.000
34.510 304.000 1.000
34.520 283.000 1.000
34.530 279.000 1.000
34.540 270.000 1.000
34.550 268.000 1.000
34.560 283.000 1.000
34.570 273.000 1.000
34.580 257.000 1.000
34.590 272.000 1.000
34.600 273.000 1.000
34.610 259.000 1.000
34.620 260.000 1.000
34.630 285.000 1.000
34.640 269.000 1.000
34.650 277.000 1.000
34.660 291.000 1.000
34.670 269.000 1.000
34.680 252.000 1.000
34.690 225.000 1.000
34.700 226.000 1.000
34.710 244.000 1.000
34.720 250.000 1.000
34.730 260.000 1.000
34.740 267.000 1.000
34.750 259.000 1.000
34.760 260.000 1.000
34.770 258.000 1.000
34.780 265.000 1.000
34.790 260.000 1.000
34.800 273.000 1.000
34.810 270.000 1.000
34.820 272.000 1.000
34.830 273.000 1.000
34.840 268.000 1.000
34.850 254.000 1.000
34.860 245.000 1.000
34.870 255.000 1.000
34.880 255.000 1.000
34.890 275.000 1.000
34.900 255.000 1.000
34.910 250.000 1.000
34.920 253.000 1.000
34.930 258.000 1.000
34.940 282.000 1.000
34.950 277.000 1.000
34.960 263.000 1.000
34.970 258.000 1.000
34.980 268.000 1.000
34.990 273.000 1.000
35.000 261.000 1.000
35.010 258.000 1.000
35.020 275.000 1.000
35.030 258.000 1.000
35.040 262.000 1.000
35.050 265.000 1.000
35.060 275.000 1.000
35.070 271.000 1.000
35.080 283.000 1.000
35.090 304.000 1.000
35.100 291.000 1.000
35.110 285.000 1.000
35.120 271.000 1.000
35.130 289.000 1.000
35.140 289.000 1.000
35.150 278.000 1.000
35.160 281.000 1.000
35.170 289.000 1.000
35.180 313.000 1.000
35.190 331.000 1.000
35.200 318.000 1.000
35.210 318.000 1.000
35.220 318.000 1.000
35.230 319.000 1.000
35.240 323.000 1.000
35.250 332.000 1.000
35.260 338.000 1.000
35.270 345.000 1.000
35.280 322.000 1.000
35.290 306.000 1.000
35.300 334.000 1.000
35.310 335.000 1.000
35.320 342.000 1.000
35.330 335.000 1.000
35.340 311.000 1.000
35.350 327.000 1.000
35.360 307.000 1.000
35.370 300.000 1.000
35.380 314.000 1.000
35.390 301.000 1.000
35.400 307.000 1.000
35.410 313.000 1.000
35.420 299.000 1.000
35.430 310.000 1.000
35.440 289.000 1.000
35.450 275.000 1.000
35.460 276.000 1.000
35.470 270.000 1.000
35.480 269.000 1.000
35.490 280.000 1.000
35.500 275.000 1.000
35.510 265.000 1.000
35.520 277.000 1.000
35.530 251.000 1.000
35.540 243.000 1.000
35.550 274.000 1.000
35.560 272.000 1.000
35.570 251.000 1.000
35.580 262.000 1.000
35.590 266.000 1.000
35.600 260.000 1.000
35.610 246.000 1.000
35.620 255.000 1.000
35.630 251.000 1.000
35.640 256.000 1.000
35.650 261.000 1.000
35.660 255.000 1.000
35.670 269.000 1.000
35.680 281.000 1.000
35.690 278.000 1.000
35.700 285.000 1.000
35.710 274.000 1.000
35.720 262.000 1.000
35.730 275.000 1.000
35.740 274.000 1.000
35.750 266.000 1.000
35.760 272.000 1.000
35.770 283.000 1.000
35.780 270.000 1.000
35.790 255.000 1.000
35.800 265.000 1.000
35.810 278.000 1.000
35.820 276.000 1.000
35.830 276.000 1.000
35.840 261.000 1.000
35.850 274.000 1.000
35.860 274.000 1.000
35.870 282.000 1.000
35.880 287.000 1.000
35.890 284.000 1.000
35.900 285.000 1.000
35.910 281.000 1.000
35.920 285.000 1.000
35.930 263.000 1.000
35.940 286.000 1.000
35.950 285.000 1.000
35.960 280.000 1.000
35.970 275.000 1.000
35.980 301.000 1.000
35.990 319.000 1.000
36.000 296.000 1.000
36.010 307.000 1.000
36.020 314.000 1.000
36.030 339.000 1.000
36.040 344.000 1.000
36.050 344.000 1.000
36.060 358.000 1.000
36.070 352.000 1.000
36.080 343.000 1.000
36.090 374.000 1.000
36.100 368.000 1.000
36.110 382.000 1.000
36.120 399.000 1.000
36.130 395.000 1.000
36.140 413.000 1.000
36.150 426.000 1.000
36.160 418.000 1.000
36.170 413.000 1.000
36.180 436.000 1.000
36.190 417.000 1.000
36.200 422.000 1.000
36.210 444.000 1.000
36.220 452.000 1.000
36.230 445.000 1.000
36.240 437.000 1.000
36.250 433.000 1.000
36.260 452.000 1.000
36.270 447.000 1.000
36.280 447.000 1.000
36.290 445.000 1.000
36.300 440.000 1.000
36.310 428.000 1.000
36.320 444.000 1.000
36.330 396.000 1.000
36.340 370.000 1.000
36.350 411.000 1.000
36.360 399.000 1.000
36.370 375.000 1.000
36.380 353.000 1.000
36.390 362.000 1.000
36.400 343.000 1.000
36.410 351.000 1.000
36.420 351.000 1.000
36.430 349.000 1.000
36.440 352.000 1.000
36.450 339.000 1.000
36.460 322.000 1.000
36.470 331.000 1.000
36.480 335.000 1.000
36.490 314.000 1.000
36.500 308.000 1.000
36.510 311.000 1.000
36.520 290.000 1.000
36.530 279.000 1.000
36.540 296.000 1.000
36.550 320.000 1.000
36.560 303.000 1.000
36.570 288.000 1.000
36.580 328.000 1.000
36.590 328.000 1.000
36.600 302.000 1.000
36.610 309.000 1.000
36.620 312.000 1.000
36.630 299.000 1.000
36.640 312.000 1.000
36.650 322.000 1.000
36.660 299.000 1.000
36.670 274.000 1.000
36.680 269.000 1.000
36.690 296.000 1.000
36.700 312.000 1.000
36.710 291.000 1.000
36.720 291.000 1.000
36.730 318.000 1.000
36.740 299.000 1.000
36.750 290.000 1.000
36.760 300.000 1.000
36.770 311.000 1.000
36.780 297.000 1.000
36.790 300.000 1.000
36.800 292.000 1.000
36.810 299.000 1.000
36.820 264.000 1.000
36.830 274.000 1.000
36.840 284.000 1.000
36.850 288.000 1.000
36.860 306.000 1.000
36.870 284.000 1.000
36.880 263.000 1.000
36.890 268.000 1.000
36.900 290.000 1.000
36.910 287.000 1.000
36.920 286.000 1.000
36.930 280.000 1.000
36.940 266.000 1.000
36.950 250.000 1.000
36.960 273.000 1.000
36.970 263.000 1.000
36.980 263.000 1.000
36.990 265.000 1.000
37.000 253.000 1.000
37.010 258.000 1.000
37.020 261.000 1.000
37.030 241.000 1.000
37.040 244.000 1.000
37.050 269.000 1.000
37.060 267.000 1.000
37.070 267.000 1.000
37.080 255.000 1.000
37.090 260.000 1.000
37.100 263.000 1.000
37.110 256.000 1.000
37.120 262.000 1.000
37.130 248.000 1.000
37.140 254.000 1.000
37.150 246.000 1.000
37.160 252.000 1.000
37.170 268.000 1.000
37.180 261.000 1.000
37.190 273.000 1.000
37.200 252.000 1.000
37.210 262.000 1.000
37.220 253.000 1.000
37.230 270.000 1.000
37.240 260.000 1.000
37.250 270.000 1.000
37.260 261.000 1.000
37.270 258.000 1.000
37.280 277.000 1.000
37.290 268.000 1.000
37.300 254.000 1.000
37.310 256.000 1.000
37.320 262.000 1.000
37.330 289.000 1.000
37.340 287.000 1.000
37.350 295.000 1.000
37.360 289.000 1.000
37.370 253.000 1.000
37.380 276.000 1.000
37.390 283.000 1.000
37.400 252.000 1.000
37.410 288.000 1.000
37.420 270.000 1.000
37.430 264.000 1.000
37.440 264.000 1.000
37.450 242.000 1.000
37.460 256.000 1.000
37.470 271.000 1.000
37.480 263.000 1.000
37.490 264.000 1.000
37.500 273.000 1.000
37.510 286.000 1.000
37.520 266.000 1.000
37.530 248.000 1.000
37.540 257.000 1.000
37.550 263.000 1.000
37.560 256.000 1.000
37.570 280.000 1.000
37.580 299.000 1.000
37.590 270.000 1.000
37.600 263.000 1.000
37.610 266.000 1.000
37.620 274.000 1.000
37.630 272.000 1.000
37.640 278.000 1.000
37.650 275.000 1.000
37.660 273.000 1.000
37.670 281.000 1.000
37.680 276.000 1.000
37.690 278.000 1.000
37.700 283.000 1.000
37.710 280.000 1.000
37.720 281.000 1.000
37.730 290.000 1.000
37.740 289.000 1.000
37.750 279.000 1.000
37.760 290.000 1.000
37.770 319.000 1.000
37.780 312.000 1.000
37.790 292.000 1.000
37.800 306.000 1.000
37.810 341.000 1.000
37.820 327.000 1.000
37.830 318.000 1.000
37.840 330.000 1.000
37.850 348.000 1.000
37.860 359.000 1.000
37.870 335.000 1.000
37.880 339.000 1.000
37.890 374.000 1.000
37.900 368.000 1.000
37.910 364.000 1.000
37.920 364.000 1.000
37.930 345.000 1.000
37.940 390.000 1.000
37.950 422.000 1.000
37.960 422.000 1.000
37.970 453.000 1.000
37.980 456.000 1.000
37.990 454.000 1.000
38.000 433.000 1.000
38.010 439.000 1.000
38.020 452.000 1.000
38.030 452.000 1.000
38.040 415.000 1.000
38.050 427.000 1.000
38.060 441.000 1.000
38.070 399.000 1.000
38.080 390.000 1.000
38.090 431.000 1.000
38.100 416.000 1.000
38.110 394.000 1.000
38.120 386.000 1.000
38.130 384.000 1.000
38.140 382.000 1.000
38.150 363.000 1.000
38.160 360.000 1.000
38.170 358.000 1.000
38.180 341.000 1.000
38.190 343.000 1.000
38.200 329.000 1.000
38.210 305.000 1.000
38.220 314.000 1.000
38.230 323.000 1.000
38.240 309.000 1.000
38.250 317.000 1.000
38.260 285.000 1.000
38.270 279.000 1.000
38.280 286.000 1.000
38.290 290.000 1.000
38.300 312.000 1.000
38.310 259.000 1.000
38.320 289.000 1.000
38.330 281.000 1.000
38.340 271.000 1.000
38.350 278.000 1.000
38.360 279.000 1.000
38.370 285.000 1.000
38.380 280.000 1.000
38.390 276.000 1.000
38.400 294.000 1.000
38.410 279.000 1.000
38.420 273.000 1.000
38.430 292.000 1.000
38.440 264.000 1.000
38.450 263.000 1.000
38.460 285.000 1.000
38.470 299.000 1.000
38.480 276.000 1.000
38.490 268.000 1.000
38.500 230.000 1.000
38.510 273.000 1.000
38.520 274.000 1.000
38.530 271.000 1.000
38.540 255.000 1.000
38.550 264.000 1.000
38.560 264.000 1.000
38.570 251.000 1.000
38.580 249.000 1.000
38.590 246.000 1.000
38.600 248.000 1.000
38.610 262.000 1.000
38.620 277.000 1.000
38.630 264.000 1.000
38.640 259.000 1.000
38.650 257.000 1.000
38.660 268.000 1.000
38.670 271.000 1.000
38.680 254.000 1.000
38.690 266.000 1.000
38.700 264.000 1.000
38.710 250.000 1.000
38.720 255.000 1.000
38.730 242.000 1.000
38.740 257.000 1.000
38.750 250.000 1.000
38.760 254.000 1.000
38.770 270.000 1.000
38.780 268.000 1.000
38.790 240.000 1.000
38.800 262.000 1.000
38.810 265.000 1.000
38.820 262.000 1.000
38.830 261.000 1.000
38.840 248.000 1.000
38.850 268.000 1.000
38.860 275.000 1.000
38.870 267.000 1.000
38.880 267.000 1.000
38.890 255.000 1.000
38.900 278.000 1.000
38.910 252.000 1.000
38.920 250.000 1.000
38.930 275.000 1.000
38.940 274.000 1.000
38.950 266.000 1.000
38.960 283.000 1.000
38.970 281.000 1.000
38.980 256.000 1.000
38.990 256.000 1.000
39.000 272.000 1.000
39.010 286.000 1.000
39.020 288.000 1.000
39.030 270.000 1.000
39.040 293.000 1.000
39.050 296.000 1.000
39.060 260.000 1.000
39.070 263.000 1.000
39.080 281.000 1.000
39.090 264.000 1.000
39.100 264.000 1.000
39.110 277.000 1.000
39.120 250.000 1.000
39.130 250.000 1.000
39.140 289.000 1.000
39.150 273.000 1.000
39.160 283.000 1.000
39.170 278.000 1.000
39.180 280.000 1.000
39.190 261.000 1.000
39.200 268.000 1.000
39.210 273.000 1.000
39.220 265.000 1.000
39.230 251.000 1.000
39.240 263.000 1.000
39.250 270.000 1.000
39.260 272.000 1.000
39.270 281.000 1.000
39.280 268.000 1.000
39.290 274.000 1.000
39.300 274.000 1.000
39.310 267.000 1.000
39.320 261.000 1.000
39.330 258.000 1.000
39.340 269.000 1.000
39.350 299.000 1.000
39.360 299.000 1.000
39.370 290.000 1.000
39.380 300.000 1.000
39.390 319.000 1.000
39.400 286.000 1.000
39.410 295.000 1.000
39.420 299.000 1.000
39.430 290.000 1.000
39.440 300.000 1.000
39.450 313.000 1.000
39.460 307.000 1.000
39.470 299.000 1.000
39.480 340.000 1.000
39.490 333.000 1.000
39.500 293.000 1.000
39.510 288.000 1.000
39.520 317.000 1.000
39.530 305.000 1.000
39.540 310.000 1.000
39.550 316.000 1.000
39.560 309.000 1.000
39.570 323.000 1.000
39.580 314.000 1.000
39.590 292.000 1.000
39.600 283.000 1.000
39.610 292.000 1.000
39.620 283.000 1.000
39.630 291.000 1.000
39.640 285.000 1.000
39.650 268.000 1.000
39.660 288.000 1.000
39.670 295.000 1.000
39.680 283.000 1.000
39.690 287.000 1.000
39.700 276.000 1.000
39.710 283.000 1.000
39.720 292.000 1.000
39.730 290.000 1.000
39.740 268.000 1.000
39.750 293.000 1.000
39.760 270.000 1.000
39.770 259.000 1.000
39.780 263.000 1.000
39.790 252.000 1.000
39.800 260.000 1.000
39.810 277.000 1.000
39.820 285.000 1.000
39.830 276.000 1.000
39.840 272.000 1.000
39.850 277.000 1.000
39.860 267.000 1.000
39.870 265.000 1.000
39.880 278.000 1.000
39.890 281.000 1.000
39.900 259.000 1.000
39.910 254.000 1.000
39.920 270.000 1.000
39.930 265.000 1.000
39.940 269.000 1.000
39.950 250.000 1.000
39.960 251.000 1.000
39.970 269.000 1.000
39.980 256.000 1.000
39.990 275.000 1.000
40.000 263.000 1.000
40.010 267.000 1.000
40.020 282.000 1.000
40.030 272.000 1.000
40.040 293.000 1.000
40.050 282.000 1.000
40.060 278.000 1.000
40.070 282.000 1.000
40.080 300.000 1.000
40.090 280.000 1.000
40.100 269.000 1.000
40.110 285.000 1.000
40.120 293.000 1.000
40.130 277.000 1.000
40.140 277.000 1.000
40.150 304.000 1.000
40.160 302.000 1.000
40.170 285.000 1.000
40.180 274.000 1.000
40.190 287.000 1.000
40.200 269.000 1.000
40.210 284.000 1.000
40.220 299.000 1.000
40.230 296.000 1.000
40.240 302.000 1.000
40.250 302.000 1.000
40.260 319.000 1.000
40.270 327.000 1.000
40.280 326.000 1.000
40.290 318.000 1.000
40.300 327.000 1.000
40.310 323.000 1.000
40.320 312.000 1.000
40.330 320.000 1.000
40.340 342.000 1.000
40.350 340.000 1.000
40.360 348.000 1.000
40.370 348.000 1.000
40.380 356.000 1.000
40.390 370.000 1.000
40.400 365.000 1.000
40.410 364.000 1.000
40.420 370.000 1.000
40.430 374.000 1.000
40.440 388.000 1.000
40.450 401.000 1.000
40.460 399.000 1.000
40.470 401.000 1.000
40.480 374.000 1.000
40.490 386.000 1.000
40.500 407.000 1.000
40.510 417.000 1.000
40.520 392.000 1.000
40.530 399.000 1.000
40.540 425.000 1.000
40.550 451.000 1.000
40.560 473.000 1.000
40.570 451.000 1.000
40.580 465.000 1.000
40.590 475.000 1.000
40.600 447.000 1.000
40.610 473.000 1.000
40.620 487.000 1.000
40.630 459.000 1.000
40.640 454.000 1.000
40.650 470.000 1.000
40.660 467.000 1.000
40.670 450.000 1.000
40.680 429.000 1.000
40.690 430.000 1.000
40.700 440.000 1.000
40.710 440.000 1.000
40.720 429.000 1.000
40.730 394.000 1.000
40.740 405.000 1.000
40.750 400.000 1.000
40.760 384.000 1.000
40.770 384.000 1.000
40.780 353.000 1.000
40.790 387.000 1.000
40.800 401.000 1.000
40.810 365.000 1.000
40.820 363.000 1.000
40.830 342.000 1.000
40.840 327.000 1.000
40.850 348.000 1.000
40.860 348.000 1.000
40.870 323.000 1.000
40.880 316.000 1.000
40.890 341.000 1.000
40.900 349.000 1.000
40.910 339.000 1.000
40.920 303.000 1.000
40.930 303.000 1.000
40.940 310.000 1.000
40.950 327.000 1.000
40.960 342.000 1.000
40.970 353.000 1.000
40.980 326.000 1.000
40.990 313.000 1.000
41.000 320.000 1.000
41.010 333.000 1.000
41.020 357.000 1.000
41.030 327.000 1.000
41.040 356.000 1.000
41.050 316.000 1.000
41.060 352.000 1.000
41.070 343.000 1.000
41.080 375.000 1.000
41.090 405.000 1.000
41.100 405.000 1.000
41.110 415.000 1.000
41.120 413.000 1.000
41.130 410.000 1.000
41.140 433.000 1.000
41.150 436.000 1.000
41.160 433.000 1.000
41.170 459.000 1.000
41.180 469.000 1.000
41.190 460.000 1.000
41.200 453.000 1.000
41.210 478.000 1.000
41.220 487.000 1.000
41.230 493.000 1.000
41.240 473.000 1.000
41.250 454.000 1.000
41.260 460.000 1.000
41.270 464.000 1.000
41.280 449.000 1.000
41.290 441.000 1.000
41.300 434.000 1.000
41.310 439.000 1.000
41.320 408.000 1.000
41.330 401.000 1.000
41.340 415.000 1.000
41.350 406.000 1.000
41.360 400.000 1.000
41.370 413.000 1.000
41.380 396.000 1.000
41.390 374.000 1.000
41.400 335.000 1.000
41.410 338.000 1.000
41.420 371.000 1.000
41.430 379.000 1.000
41.440 343.000 1.000
41.450 358.000 1.000
41.460 371.000 1.000
41.470 349.000 1.000
41.480 348.000 1.000
41.490 365.000 1.000
41.500 338.000 1.000
41.510 346.000 1.000
41.520 348.000 1.000
41.530 337.000 1.000
41.540 326.000 1.000
41.550 328.000 1.000
41.560 351.000 1.000
41.570 340.000 1.000
41.580 334.000 1.000
41.590 348.000 1.000
41.600 325.000 1.000
41.610 336.000 1.000
41.620 342.000 1.000
41.630 325.000 1.000
41.640 305.000 1.000
41.650 321.000 1.000
41.660 352.000 1.000
41.670 321.000 1.000
41.680 311.000 1.000
41.690 335.000 1.000
41.700 307.000 1.000
41.710 312.000 1.000
41.720 322.000 1.000
41.730 308.000 1.000
41.740 308.000 1.000
41.750 324.000 1.000
41.760 311.000 1.000
41.770 297.000 1.000
41.780 294.000 1.000
41.790 300.000 1.000
41.800 300.000 1.000
41.810 281.000 1.000
41.820 280.000 1.000
41.830 291.000 1.000
41.840 312.000 1.000
41.850 307.000 1.000
41.860 282.000 1.000
41.870 294.000 1.000
41.880 325.000 1.000
41.890 305.000 1.000
41.900 290.000 1.000
41.910 331.000 1.000
41.920 320.000 1.000
41.930 323.000 1.000
41.940 301.000 1.000
41.950 291.000 1.000
41.960 329.000 1.000
41.970 317.000 1.000
41.980 308.000 1.000
41.990 318.000 1.000
42.000 325.000 1.000
42.010 314.000 1.000
42.020 337.000 1.000
42.030 336.000 1.000
42.040 321.000 1.000
42.050 341.000 1.000
42.060 343.000 1.000
42.070 328.000 1.000
42.080 348.000 1.000
42.090 340.000 1.000
42.100 355.000 1.000
42.110 361.000 1.000
42.120 346.000 1.000
42.130 347.000 1.000
42.140 348.000 1.000
42.150 348.000 1.000
42.160 337.000 1.000
42.170 333.000 1.000
42.180 334.000 1.000
42.190 363.000 1.000
42.200 353.000 1.000
42.210 344.000 1.000
42.220 351.000 1.000
42.230 330.000 1.000
42.240 321.000 1.000
42.250 332.000 1.000
42.260 348.000 1.000
42.270 339.000 1.000
42.280 355.000 1.000
42.290 340.000 1.000
42.300 338.000 1.000
42.310 367.000 1.000
42.320 323.000 1.000
42.330 327.000 1.000
42.340 353.000 1.000
42.350 378.000 1.000
42.360 394.000 1.000
42.370 363.000 1.000
42.380 364.000 1.000
42.390 361.000 1.000
42.400 371.000 1.000
42.410 384.000 1.000
42.420 369.000 1.000
42.430 356.000 1.000
42.440 365.000 1.000
42.450 371.000 1.000
42.460 383.000 1.000
42.470 339.000 1.000
42.480 342.000 1.000
42.490 395.000 1.000
42.500 359.000 1.000
42.510 356.000 1.000
42.520 327.000 1.000
42.530 371.000 1.000
42.540 368.000 1.000
42.550 346.000 1.000
42.560 321.000 1.000
42.570 328.000 1.000
42.580 324.000 1.000
42.590 324.000 1.000
42.600 313.000 1.000
42.610 316.000 1.000
42.620 328.000 1.000
42.630 313.000 1.000
42.640 327.000 1.000
42.650 316.000 1.000
42.660 308.000 1.000
42.670 306.000 1.000
42.680 308.000 1.000
42.690 294.000 1.000
42.700 305.000 1.000
42.710 304.000 1.000
42.720 317.000 1.000
42.730 333.000 1.000
42.740 340.000 1.000
42.750 320.000 1.000
42.760 343.000 1.000
42.770 356.000 1.000
42.780 351.000 1.000
42.790 340.000 1.000
42.800 339.000 1.000
42.810 357.000 1.000
42.820 355.000 1.000
42.830 349.000 1.000
42.840 358.000 1.000
42.850 352.000 1.000
42.860 355.000 1.000
42.870 357.000 1.000
42.880 384.000 1.000
42.890 387.000 1.000
42.900 380.000 1.000
42.910 373.000 1.000
42.920 370.000 1.000
42.930 353.000 1.000
42.940 363.000 1.000
42.950 359.000 1.000
42.960 375.000 1.000
42.970 367.000 1.000
42.980 350.000 1.000
42.990 347.000 1.000
43.000 356.000 1.000
43.010 371.000 1.000
43.020 334.000 1.000
43.030 344.000 1.000
43.040 346.000 1.000
43.050 339.000 1.000
43.060 347.000 1.000
43.070 342.000 1.000
43.080 352.000 1.000
43.090 346.000 1.000
43.100 348.000 1.000
43.110 326.000 1.000
43.120 311.000 1.000
43.130 296.000 1.000
43.140 341.000 1.000
43.150 368.000 1.000
43.160 347.000 1.000
43.170 336.000 1.000
43.180 337.000 1.000
43.190 355.000 1.000
43.200 334.000 1.000
43.210 346.000 1.000
43.220 360.000 1.000
43.230 352.000 1.000
43.240 340.000 1.000
43.250 328.000 1.000
43.260 344.000 1.000
43.270 359.000 1.000
43.280 338.000 1.000
43.290 338.000 1.000
43.300 352.000 1.000
43.310 369.000 1.000
43.320 373.000 1.000
43.330 365.000 1.000
43.340 377.000 1.000
43.350 384.000 1.000
43.360 370.000 1.000
43.370 362.000 1.000
43.380 373.000 1.000
43.390 368.000 1.000
43.400 348.000 1.000
43.410 350.000 1.000
43.420 368.000 1.000
43.430 348.000 1.000
43.440 329.000 1.000
43.450 339.000 1.000
43.460 365.000 1.000
43.470 356.000 1.000
43.480 331.000 1.000
43.490 338.000 1.000
43.500 338.000 1.000
43.510 332.000 1.000
43.520 325.000 1.000
43.530 315.000 1.000
43.540 297.000 1.000
43.550 321.000 1.000
43.560 325.000 1.000
43.570 308.000 1.000
43.580 331.000 1.000
43.590 324.000 1.000
43.600 298.000 1.000
43.610 300.000 1.000
43.620 302.000 1.000
43.630 323.000 1.000
43.640 310.000 1.000
43.650 316.000 1.000
43.660 318.000 1.000
43.670 303.000 1.000
43.680 299.000 1.000
43.690 301.000 1.000
43.700 295.000 1.000
43.710 288.000 1.000
43.720 299.000 1.000
43.730 309.000 1.000
43.740 291.000 1.000
43.750 311.000 1.000
43.760 315.000 1.000
43.770 304.000 1.000
43.780 331.000 1.000
43.790 300.000 1.000
43.800 294.000 1.000
43.810 315.000 1.000
43.820 308.000 1.000
43.830 319.000 1.000
43.840 324.000 1.000
43.850 324.000 1.000
43.860 297.000 1.000
43.870 304.000 1.000
43.880 303.000 1.000
43.890 309.000 1.000
43.900 318.000 1.000
43.910 338.000 1.000
43.920 300.000 1.000
43.930 288.000 1.000
43.940 314.000 1.000
43.950 319.000 1.000
43.960 320.000 1.000
43.970 319.000 1.000
43.980 297.000 1.000
43.990 318.000 1.000
44.000 315.000 1.000
44.010 298.000 1.000
44.020 324.000 1.000
44.030 317.000 1.000
44.040 316.000 1.000
44.050 310.000 1.000
44.060 304.000 1.000
44.070 332.000 1.000
44.080 323.000 1.000
44.090 314.000 1.000
44.100 301.000 1.000
44.110 320.000 1.000
44.120 336.000 1.000
44.130 335.000 1.000
44.140 320.000 1.000
44.150 327.000 1.000
44.160 339.000 1.000
44.170 326.000 1.000
44.180 319.000 1.000
44.190 310.000 1.000
44.200 336.000 1.000
44.210 340.000 1.000
44.220 341.000 1.000
44.230 348.000 1.000
44.240 342.000 1.000
44.250 346.000 1.000
44.260 341.000 1.000
44.270 385.000 1.000
44.280 374.000 1.000
44.290 366.000 1.000
44.300 361.000 1.000
44.310 370.000 1.000
44.320 366.000 1.000
44.330 357.000 1.000
44.340 385.000 1.000
44.350 394.000 1.000
44.360 385.000 1.000
44.370 381.000 1.000
44.380 409.000 1.000
44.390 389.000 1.000
44.400 381.000 1.000
44.410 388.000 1.000
44.420 388.000 1.000
44.430 398.000 1.000
44.440 408.000 1.000
44.450 379.000 1.000
44.460 369.000 1.000
44.470 368.000 1.000
44.480 371.000 1.000
44.490 367.000 1.000
44.500 385.000 1.000
44.510 388.000 1.000
44.520 377.000 1.000
44.530 371.000 1.000
44.540 352.000 1.000
44.550 366.000 1.000
44.560 387.000 1.000
44.570 374.000 1.000
44.580 335.000 1.000
44.590 320.000 1.000
44.600 313.000 1.000
44.610 314.000 1.000
44.620 328.000 1.000
44.630 325.000 1.000
44.640 315.000 1.000
44.650 303.000 1.000
44.660 311.000 1.000
44.670 317.000 1.000
44.680 313.000 1.000
44.690 327.000 1.000
44.700 323.000 1.000
44.710 331.000 1.000
44.720 312.000 1.000
44.730 311.000 1.000
44.740 311.000 1.000
44.750 277.000 1.000
44.760 262.000 1.000
44.770 263.000 1.000
44.780 270.000 1.000
44.790 299.000 1.000
44.800 311.000 1.000
44.810 297.000 1.000
44.820 286.000 1.000
44.830 299.000 1.000
44.840 306.000 1.000
44.850 295.000 1.000
44.860 280.000 1.000
44.870 303.000 1.000
44.880 305.000 1.000
44.890 280.000 1.000
44.900 263.000 1.000
44.910 300.000 1.000
44.920 299.000 1.000
44.930 300.000 1.000
44.940 307.000 1.000
44.950 300.000 1.000
44.960 282.000 1.000
44.970 265.000 1.000
44.980 271.000 1.000
44.990 281.000 1.000
45.000 298.000 1.000
45.010 288.000 1.000
45.020 288.000 1.000
45.030 283.000 1.000
45.040 298.000 1.000
45.050 273.000 1.000
45.060 269.000 1.000
45.070 256.000 1.000
45.080 279.000 1.000
45.090 286.000 1.000
45.100 311.000 1.000
45.110 291.000 1.000
45.120 280.000 1.000
45.130 263.000 1.000
45.140 273.000 1.000
45.150 287.000 1.000
45.160 293.000 1.000
45.170 288.000 1.000
45.180 282.000 1.000
45.190 275.000 1.000
45.200 273.000 1.000
45.210 287.000 1.000
45.220 278.000 1.000
45.230 311.000 1.000
45.240 274.000 1.000
45.250 287.000 1.000
45.260 291.000 1.000
45.270 288.000 1.000
45.280 287.000 1.000
45.290 271.000 1.000
45.300 289.000 1.000
45.310 312.000 1.000
45.320 306.000 1.000
45.330 300.000 1.000
45.340 287.000 1.000
45.350 284.000 1.000
45.360 296.000 1.000
45.370 292.000 1.000
45.380 281.000 1.000
45.390 273.000 1.000
45.400 309.000 1.000
45.410 325.000 1.000
45.420 308.000 1.000
45.430 298.000 1.000
45.440 291.000 1.000
45.450 295.000 1.000
45.460 288.000 1.000
45.470 281.000 1.000
45.480 288.000 1.000
45.490 292.000 1.000
45.500 301.000 1.000
45.510 296.000 1.000
45.520 303.000 1.000
45.530 291.000 1.000
45.540 282.000 1.000
45.550 285.000 1.000
45.560 294.000 1.000
45.570 291.000 1.000
45.580 283.000 1.000
45.590 270.000 1.000
45.600 280.000 1.000
45.610 284.000 1.000
45.620 279.000 1.000
45.630 265.000 1.000
45.640 319.000 1.000
45.650 296.000 1.000
45.660 306.000 1.000
45.670 285.000 1.000
45.680 256.000 1.000
45.690 276.000 1.000
45.700 293.000 1.000
45.710 281.000 1.000
45.720 297.000 1.000
45.730 287.000 1.000
45.740 279.000 1.000
45.750 309.000 1.000
45.760 306.000 1.000
45.770 293.000 1.000
45.780 278.000 1.000
45.790 280.000 1.000
45.800 306.000 1.000
45.810 282.000 1.000
45.820 279.000 1.000
45.830 285.000 1.000
45.840 287.000 1.000
45.850 289.000 1.000
45.860 297.000 1.000
45.870 275.000 1.000
45.880 280.000 1.000
45.890 292.000 1.000
45.900 299.000 1.000
45.910 304.000 1.000
45.920 307.000 1.000
45.930 292.000 1.000
45.940 303.000 1.000
45.950 277.000 1.000
45.960 278.000 1.000
45.970 285.000 1.000
45.980 285.000 1.000
45.990 301.000 1.000
46.000 315.000 1.000
46.010 308.000 1.000
46.020 298.000 1.000
46.030 307.000 1.000
46.040 284.000 1.000
46.050 279.000 1.000
46.060 301.000 1.000
46.070 280.000 1.000
46.080 287.000 1.000
46.090 303.000 1.000
46.100 294.000 1.000
46.110 309.000 1.000
46.120 301.000 1.000
46.130 320.000 1.000
46.140 326.000 1.000
46.150 318.000 1.000
46.160 328.000 1.000
46.170 319.000 1.000
46.180 330.000 1.000
46.190 338.000 1.000
46.200 353.000 1.000
46.210 336.000 1.000
46.220 344.000 1.000
46.230 340.000 1.000
46.240 362.000 1.000
46.250 350.000 1.000
46.260 330.000 1.000
46.270 332.000 1.000
46.280 332.000 1.000
46.290 376.000 1.000
46.300 350.000 1.000
46.310 338.000 1.000
46.320 373.000 1.000
46.330 382.000 1.000
46.340 387.000 1.000
46.350 381.000 1.000
46.360 381.000 1.000
46.370 376.000 1.000
46.380 365.000 1.000
46.390 381.000 1.000
46.400 389.000 1.000
46.410 376.000 1.000
46.420 401.000 1.000
46.430 399.000 1.000
46.440 393.000 1.000
46.450 407.000 1.000
46.460 382.000 1.000
46.470 386.000 1.000
46.480 403.000 1.000
46.490 413.000 1.000
46.500 401.000 1.000
46.510 424.000 1.000
46.520 422.000 1.000
46.530 418.000 1.000
46.540 410.000 1.000
46.550 427.000 1.000
46.560 435.000 1.000
46.570 415.000 1.000
46.580 400.000 1.000
46.590 415.000 1.000
46.600 423.000 1.000
46.610 414.000 1.000
46.620 388.000 1.000
46.630 404.000 1.000
46.640 421.000 1.000
46.650 409.000 1.000
46.660 401.000 1.000
46.670 386.000 1.000
46.680 388.000 1.000
46.690 380.000 1.000
46.700 389.000 1.000
46.710 418.000 1.000
46.720 382.000 1.000
46.730 380.000 1.000
46.740 399.000 1.000
46.750 368.000 1.000
46.760 363.000 1.000
46.770 354.000 1.000
46.780 355.000 1.000
46.790 347.000 1.000
46.800 346.000 1.000
46.810 328.000 1.000
46.820 332.000 1.000
46.830 331.000 1.000
46.840 339.000 1.000
46.850 335.000 1.000
46.860 333.000 1.000
46.870 327.000 1.000
46.880 319.000 1.000
46.890 303.000 1.000
46.900 315.000 1.000
46.910 317.000 1.000
46.920 322.000 1.000
46.930 329.000 1.000
46.940 320.000 1.000
46.950 327.000 1.000
46.960 310.000 1.000
46.970 314.000 1.000
46.980 322.000 1.000
46.990 319.000 1.000
47.000 320.000 1.000
47.010 302.000 1.000
47.020 310.000 1.000
47.030 320.000 1.000
47.040 323.000 1.000
47.050 317.000 1.000
47.060 351.000 1.000
47.070 336.000 1.000
47.080 317.000 1.000
47.090 336.000 1.000
47.100 326.000 1.000
47.110 313.000 1.000
47.120 315.000 1.000
47.130 332.000 1.000
47.140 328.000 1.000
47.150 319.000 1.000
47.160 320.000 1.000
47.170 308.000 1.000
47.180 344.000 1.000
47.190 346.000 1.000
47.200 330.000 1.000
47.210 310.000 1.000
47.220 332.000 1.000
47.230 314.000 1.000
47.240 289.000 1.000
47.250 320.000 1.000
47.260 327.000 1.000
47.270 322.000 1.000
47.280 303.000 1.000
47.290 315.000 1.000
47.300 325.000 1.000
47.310 328.000 1.000
47.320 316.000 1.000
47.330 311.000 1.000
47.340 336.000 1.000
47.350 333.000 1.000
47.360 308.000 1.000
47.370 302.000 1.000
47.380 324.000 1.000
47.390 324.000 1.000
47.400 340.000 1.000
47.410 324.000 1.000
47.420 328.000 1.000
47.430 326.000 1.000
47.440 337.000 1.000
47.450 357.000 1.000
47.460 368.000 1.000
47.470 383.000 1.000
47.480 402.000 1.000
47.490 390.000 1.000
47.500 401.000 1.000
47.510 388.000 1.000
47.520 371.000 1.000
47.530 409.000 1.000
47.540 404.000 1.000
47.550 400.000 1.000
47.560 398.000 1.000
47.570 386.000 1.000
47.580 422.000 1.000
47.590 429.000 1.000
47.600 424.000 1.000
47.610 455.000 1.000
47.620 427.000 1.000
47.630 407.000 1.000
47.640 431.000 1.000
47.650 420.000 1.000
47.660 420.000 1.000
47.670 399.000 1.000
47.680 420.000 1.000
47.690 404.000 1.000
47.700 385.000 1.000
47.710 419.000 1.000
47.720 446.000 1.000
47.730 437.000 1.000
47.740 403.000 1.000
47.750 399.000 1.000
47.760 414.000 1.000
47.770 431.000 1.000
47.780 435.000 1.000
47.790 426.000 1.000
47.800 408.000 1.000
47.810 426.000 1.000
47.820 436.000 1.000
47.830 442.000 1.000
47.840 437.000 1.000
47.850 425.000 1.000
47.860 404.000 1.000
47.870 408.000 1.000
47.880 416.000 1.000
47.890 417.000 1.000
47.900 402.000 1.000
47.910 388.000 1.000
47.920 383.000 1.000
47.930 388.000 1.000
47.940 377.000 1.000
47.950 349.000 1.000
47.960 367.000 1.000
47.970 378.000 1.000
47.980 381.000 1.000
47.990 360.000 1.000
48.000 330.000 1.000
48.010 345.000 1.000
48.020 340.000 1.000
48.030 314.000 1.000
48.040 316.000 1.000
48.050 336.000 1.000
48.060 319.000 1.000
48.070 312.000 1.000
48.080 301.000 1.000
48.090 295.000 1.000
48.100 307.000 1.000
48.110 314.000 1.000
48.120 292.000 1.000
48.130 301.000 1.000
48.140 310.000 1.000
48.150 301.000 1.000
48.160 297.000 1.000
48.170 280.000 1.000
48.180 286.000 1.000
48.190 296.000 1.000
48.200 321.000 1.000
48.210 276.000 1.000
48.220 286.000 1.000
48.230 310.000 1.000
48.240 307.000 1.000
48.250 298.000 1.000
48.260 318.000 1.000
48.270 303.000 1.000
48.280 272.000 1.000
48.290 273.000 1.000
48.300 268.000 1.000
48.310 283.000 1.000
48.320 274.000 1.000
48.330 304.000 1.000
48.340 306.000 1.000
48.350 292.000 1.000
48.360 292.000 1.000
48.370 291.000 1.000
48.380 275.000 1.000
48.390 289.000 1.000
48.400 287.000 1.000
48.410 278.000 1.000
48.420 271.000 1.000
48.430 279.000 1.000
48.440 281.000 1.000
48.450 291.000 1.000
48.460 275.000 1.000
48.470 289.000 1.000
48.480 299.000 1.000
48.490 290.000 1.000
48.500 302.000 1.000
48.510 307.000 1.000
48.520 313.000 1.000
48.530 306.000 1.000
48.540 295.000 1.000
48.550 292.000 1.000
48.560 303.000 1.000
48.570 288.000 1.000
48.580 274.000 1.000
48.590 273.000 1.000
48.600 253.000 1.000
48.610 270.000 1.000
48.620 306.000 1.000
48.630 264.000 1.000
48.640 275.000 1.000
48.650 300.000 1.000
48.660 322.000 1.000
48.670 296.000 1.000
48.680 291.000 1.000
48.690 296.000 1.000
48.700 294.000 1.000
48.710 291.000 1.000
48.720 302.000 1.000
48.730 292.000 1.000
48.740 287.000 1.000
48.750 296.000 1.000
48.760 307.000 1.000
48.770 293.000 1.000
48.780 267.000 1.000
48.790 268.000 1.000
48.800 274.000 1.000
48.810 277.000 1.000
48.820 291.000 1.000
48.830 272.000 1.000
48.840 281.000 1.000
48.850 289.000 1.000
48.860 289.000 1.000
48.870 288.000 1.000
48.880 289.000 1.000
48.890 280.000 1.000
48.900 264.000 1.000
48.910 274.000 1.000
48.920 284.000 1.000
48.930 305.000 1.000
48.940 326.000 1.000
48.950 276.000 1.000
48.960 279.000 1.000
48.970 300.000 1.000
48.980 287.000 1.000
48.990 284.000 1.000
49.000 303.000 1.000
49.010 290.000 1.000
49.020 282.000 1.000
49.030 272.000 1.000
49.040 272.000 1.000
49.050 281.000 1.000
49.060 288.000 1.000
49.070 289.000 1.000
49.080 270.000 1.000
49.090 272.000 1.000
49.100 294.000 1.000
49.110 272.000 1.000
49.120 295.000 1.000
49.130 283.000 1.000
49.140 297.000 1.000
49.150 283.000 1.000
49.160 298.000 1.000
49.170 325.000 1.000
49.180 328.000 1.000
49.190 312.000 1.000
49.200 289.000 1.000
49.210 301.000 1.000
49.220 296.000 1.000
49.230 295.000 1.000
49.240 295.000 1.000
49.250 299.000 1.000
49.260 301.000 1.000
49.270 273.000 1.000
49.280 302.000 1.000
49.290 288.000 1.000
49.300 301.000 1.000
49.310 310.000 1.000
49.320 284.000 1.000
49.330 302.000 1.000
49.340 292.000 1.000
49.350 299.000 1.000
49.360 297.000 1.000
49.370 265.000 1.000
49.380 274.000 1.000
49.390 282.000 1.000
49.400 279.000 1.000
49.410 273.000 1.000
49.420 283.000 1.000
49.430 287.000 1.000
49.440 281.000 1.000
49.450 268.000 1.000
49.460 283.000 1.000
49.470 299.000 1.000
49.480 278.000 1.000
49.490 272.000 1.000
49.500 284.000 1.000
49.510 278.000 1.000
49.520 300.000 1.000
49.530 298.000 1.000
49.540 298.000 1.000
49.550 272.000 1.000
49.560 275.000 1.000
49.570 285.000 1.000
49.580 281.000 1.000
49.590 294.000 1.000
49.600 298.000 1.000
49.610 290.000 1.000
49.620 293.000 1.000
49.630 296.000 1.000
49.640 279.000 1.000
49.650 277.000 1.000
49.660 289.000 1.000
49.670 287.000 1.000
49.680 280.000 1.000
49.690 279.000 1.000
49.700 285.000 1.000
49.710 258.000 1.000
49.720 290.000 1.000
49.730 270.000 1.000
49.740 297.000 1.000
49.750 255.000 1.000
49.760 265.000 1.000
49.770 266.000 1.000
49.780 279.000 1.000
49.790 286.000 1.000
49.800 271.000 1.000
49.810 303.000 1.000
49.820 292.000 1.000
49.830 291.000 1.000
49.840 289.000 1.000
49.850 291.000 1.000
49.860 300.000 1.000
49.870 293.000 1.000
49.880 290.000 1.000
49.890 272.000 1.000
49.900 272.000 1.000
49.910 286.000 1.000
49.920 287.000 1.000
49.930 286.000 1.000
49.940 293.000 1.000
49.950 290.000 1.000
49.960 291.000 1.000
49.970 278.000 1.000
49.980 305.000 1.000
49.990 307.000 1.000
50.000 310.000 1.000
50.010 301.000 1.000
50.020 296.000 1.000
50.030 304.000 1.000
50.040 331.000 1.000
50.050 324.000 1.000
50.060 313.000 1.000
50.070 317.000 1.000
50.080 301.000 1.000
50.090 317.000 1.000
50.100 331.000 1.000
50.110 312.000 1.000
50.120 314.000 1.000
50.130 318.000 1.000
50.140 346.000 1.000
50.150 320.000 1.000
50.160 333.000 1.000
50.170 331.000 1.000
50.180 322.000 1.000
50.190 328.000 1.000
50.200 309.000 1.000
50.210 332.000 1.000
50.220 331.000 1.000
50.230 325.000 1.000
50.240 315.000 1.000
50.250 317.000 1.000
50.260 322.000 1.000
50.270 299.000 1.000
50.280 301.000 1.000
50.290 326.000 1.000
50.300 308.000 1.000
50.310 323.000 1.000
50.320 320.000 1.000
50.330 288.000 1.000
50.340 289.000 1.000
50.350 302.000 1.000
50.360 274.000 1.000
50.370 295.000 1.000
50.380 294.000 1.000
50.390 281.000 1.000
50.400 283.000 1.000
50.410 290.000 1.000
50.420 292.000 1.000
50.430 289.000 1.000
50.440 308.000 1.000
50.450 303.000 1.000
50.460 268.000 1.000
50.470 277.000 1.000
50.480 307.000 1.000
50.490 299.000 1.000
50.500 275.000 1.000
50.510 292.000 1.000
50.520 310.000 1.000
50.530 295.000 1.000
50.540 295.000 1.000
50.550 297.000 1.000
50.560 294.000 1.000
50.570 306.000 1.000
50.580 310.000 1.000
50.590 299.000 1.000
50.600 324.000 1.000
50.610 297.000 1.000
50.620 292.000 1.000
50.630 299.000 1.000
50.640 312.000 1.000
50.650 307.000 1.000
50.660 282.000 1.000
50.670 302.000 1.000
50.680 321.000 1.000
50.690 312.000 1.000
50.700 301.000 1.000
50.710 339.000 1.000
50.720 328.000 1.000
50.730 318.000 1.000
50.740 310.000 1.000
50.750 326.000 1.000
50.760 340.000 1.000
50.770 320.000 1.000
50.780 305.000 1.000
50.790 314.000 1.000
50.800 324.000 1.000
50.810 294.000 1.000
50.820 294.000 1.000
50.830 316.000 1.000
50.840 328.000 1.000
50.850 324.000 1.000
50.860 298.000 1.000
50.870 320.000 1.000
50.880 344.000 1.000
50.890 310.000 1.000
50.900 309.000 1.000
50.910 307.000 1.000
50.920 322.000 1.000
50.930 312.000 1.000
50.940 291.000 1.000
50.950 301.000 1.000
50.960 300.000 1.000
50.970 306.000 1.000
50.980 304.000 1.000
50.990 299.000 1.000
51.000 290.000 1.000
51.010 298.000 1.000
51.020 283.000 1.000
51.030 280.000 1.000
51.040 277.000 1.000
51.050 289.000 1.000
51.060 283.000 1.000
51.070 278.000 1.000
51.080 279.000 1.000
51.090 279.000 1.000
51.100 294.000 1.000
51.110 288.000 1.000
51.120 289.000 1.000
51.130 285.000 1.000
51.140 288.000 1.000
51.150 287.000 1.000
51.160 286.000 1.000
51.170 276.000 1.000
51.180 258.000 1.000
51.190 274.000 1.000
51.200 287.000 1.000
51.210 280.000 1.000
51.220 270.000 1.000
51.230 292.000 1.000
51.240 263.000 1.000
51.250 273.000 1.000
51.260 273.000 1.000
51.270 273.000 1.000
51.280 286.000 1.000
51.290 277.000 1.000
51.300 268.000 1.000
51.310 287.000 1.000
51.320 302.000 1.000
51.330 283.000 1.000
51.340 261.000 1.000
51.350 264.000 1.000
51.360 281.000 1.000
51.370 283.000 1.000
51.380 278.000 1.000
51.390 286.000 1.000
51.400 300.000 1.000
51.410 292.000 1.000
51.420 262.000 1.000
51.430 270.000 1.000
51.440 267.000 1.000
51.450 261.000 1.000
51.460 279.000 1.000
51.470 279.000 1.000
51.480 281.000 1.000
51.490 280.000 1.000
51.500 270.000 1.000
51.510 268.000 1.000
51.520 269.000 1.000
51.530 275.000 1.000
51.540 270.000 1.000
51.550 294.000 1.000
51.560 289.000 1.000
51.570 254.000 1.000
51.580 283.000 1.000
51.590 301.000 1.000
51.600 279.000 1.000
51.610 276.000 1.000
51.620 272.000 1.000
51.630 282.000 1.000
51.640 296.000 1.000
51.650 290.000 1.000
51.660 297.000 1.000
51.670 274.000 1.000
51.680 289.000 1.000
51.690 289.000 1.000
51.700 319.000 1.000
51.710 314.000 1.000
51.720 312.000 1.000
51.730 300.000 1.000
51.740 292.000 1.000
51.750 298.000 1.000
51.760 300.000 1.000
51.770 313.000 1.000
51.780 307.000 1.000
51.790 316.000 1.000
51.800 300.000 1.000
51.810 333.000 1.000
51.820 331.000 1.000
51.830 300.000 1.000
51.840 290.000 1.000
51.850 323.000 1.000
51.860 317.000 1.000
51.870 320.000 1.000
51.880 327.000 1.000
51.890 320.000 1.000
51.900 319.000 1.000
51.910 322.000 1.000
51.920 319.000 1.000
51.930 322.000 1.000
51.940 329.000 1.000
51.950 343.000 1.000
51.960 327.000 1.000
51.970 317.000 1.000
51.980 352.000 1.000
51.990 337.000 1.000
52.000 347.000 1.000
52.010 350.000 1.000
52.020 316.000 1.000
52.030 333.000 1.000
52.040 371.000 1.000
52.050 350.000 1.000
52.060 339.000 1.000
52.070 338.000 1.000
52.080 334.000 1.000
52.090 339.000 1.000
52.100 343.000 1.000
52.110 338.000 1.000
52.120 349.000 1.000
52.130 350.000 1.000
52.140 359.000 1.000
52.150 338.000 1.000
52.160 329.000 1.000
52.170 341.000 1.000
52.180 327.000 1.000
52.190 347.000 1.000
52.200 368.000 1.000
52.210 356.000 1.000
52.220 344.000 1.000
52.230 355.000 1.000
52.240 358.000 1.000
52.250 353.000 1.000
52.260 322.000 1.000
52.270 351.000 1.000
52.280 343.000 1.000
52.290 351.000 1.000
52.300 378.000 1.000
52.310 336.000 1.000
52.320 368.000 1.000
52.330 359.000 1.000
52.340 324.000 1.000
52.350 356.000 1.000
52.360 366.000 1.000
52.370 363.000 1.000
52.380 350.000 1.000
52.390 356.000 1.000
52.400 362.000 1.000
52.410 363.000 1.000
52.420 350.000 1.000
52.430 339.000 1.000
52.440 352.000 1.000
52.450 353.000 1.000
52.460 351.000 1.000
52.470 371.000 1.000
52.480 357.000 1.000
52.490 346.000 1.000
52.500 319.000 1.000
52.510 293.000 1.000
52.520 308.000 1.000
52.530 317.000 1.000
52.540 306.000 1.000
52.550 323.000 1.000
52.560 316.000 1.000
52.570 321.000 1.000
52.580 334.000 1.000
52.590 333.000 1.000
52.600 318.000 1.000
52.610 312.000 1.000
52.620 314.000 1.000
52.630 278.000 1.000
52.640 292.000 1.000
52.650 310.000 1.000
52.660 313.000 1.000
52.670 303.000 1.000
52.680 287.000 1.000
52.690 275.000 1.000
52.700 291.000 1.000
52.710 302.000 1.000
52.720 304.000 1.000
52.730 307.000 1.000
52.740 325.000 1.000
52.750 296.000 1.000
52.760 287.000 1.000
52.770 286.000 1.000
52.780 300.000 1.000
52.790 298.000 1.000
52.800 283.000 1.000
52.810 291.000 1.000
52.820 291.000 1.000
52.830 309.000 1.000
52.840 301.000 1.000
52.850 305.000 1.000
52.860 284.000 1.000
52.870 271.000 1.000
52.880 279.000 1.000
52.890 300.000 1.000
52.900 295.000 1.000
52.910 278.000 1.000
52.920 304.000 1.000
52.930 299.000 1.000
52.940 300.000 1.000
52.950 287.000 1.000
52.960 287.000 1.000
52.970 293.000 1.000
52.980 276.000 1.000
52.990 265.000 1.000
53.000 287.000 1.000
53.010 304.000 1.000
53.020 304.000 1.000
53.030 291.000 1.000
53.040 281.000 1.000
53.050 292.000 1.000
53.060 269.000 1.000
53.070 280.000 1.000
53.080 272.000 1.000
53.090 274.000 1.000
53.100 283.000 1.000
53.110 273.000 1.000
53.120 286.000 1.000
53.130 299.000 1.000
53.140 275.000 1.000
53.150 278.000 1.000
53.160 275.000 1.000
53.170 275.000 1.000
53.180 284.000 1.000
53.190 299.000 1.000
53.200 293.000 1.000
53.210 285.000 1.000
53.220 263.000 1.000
53.230 276.000 1.000
53.240 315.000 1.000
53.250 296.000 1.000
53.260 279.000 1.000
53.270 289.000 1.000
53.280 287.000 1.000
53.290 288.000 1.000
53.300 297.000 1.000
53.310 278.000 1.000
53.320 284.000 1.000
53.330 305.000 1.000
53.340 270.000 1.000
53.350 282.000 1.000
53.360 274.000 1.000
53.370 298.000 1.000
53.380 304.000 1.000
53.390 288.000 1.000
53.400 270.000 1.000
53.410 293.000 1.000
53.420 297.000 1.000
53.430 290.000 1.000
53.440 286.000 1.000
53.450 291.000 1.000
53.460 294.000 1.000
53.470 304.000 1.000
53.480 287.000 1.000
53.490 305.000 1.000
53.500 279.000 1.000
53.510 281.000 1.000
53.520 289.000 1.000
53.530 300.000 1.000
53.540 307.000 1.000
53.550 304.000 1.000
53.560 326.000 1.000
53.570 269.000 1.000
53.580 311.000 1.000
53.590 330.000 1.000
53.600 298.000 1.000
53.610 296.000 1.000
53.620 303.000 1.000
53.630 303.000 1.000
53.640 294.000 1.000
53.650 306.000 1.000
53.660 318.000 1.000
53.670 318.000 1.000
53.680 323.000 1.000
53.690 313.000 1.000
53.700 281.000 1.000
53.710 308.000 1.000
53.720 304.000 1.000
53.730 297.000 1.000
53.740 299.000 1.000
53.750 291.000 1.000
53.760 297.000 1.000
53.770 278.000 1.000
53.780 276.000 1.000
53.790 285.000 1.000
53.800 283.000 1.000
53.810 289.000 1.000
53.820 307.000 1.000
53.830 318.000 1.000
53.840 302.000 1.000
53.850 291.000 1.000
53.860 288.000 1.000
53.870 311.000 1.000
53.880 322.000 1.000
53.890 277.000 1.000
53.900 274.000 1.000
53.910 291.000 1.000
53.920 307.000 1.000
53.930 292.000 1.000
53.940 274.000 1.000
53.950 284.000 1.000
53.960 289.000 1.000
53.970 284.000 1.000
53.980 289.000 1.000
53.990 281.000 1.000
54.000 275.000 1.000
54.010 282.000 1.000
54.020 286.000 1.000
54.030 273.000 1.000
54.040 272.000 1.000
54.050 289.000 1.000
54.060 290.000 1.000
54.070 307.000 1.000
54.080 312.000 1.000
54.090 297.000 1.000
54.100 281.000 1.000
54.110 299.000 1.000
54.120 300.000 1.000
54.130 316.000 1.000
54.140 298.000 1.000
54.150 285.000 1.000
54.160 295.000 1.000
54.170 289.000 1.000
54.180 289.000 1.000
54.190 311.000 1.000
54.200 283.000 1.000
54.210 298.000 1.000
54.220 314.000 1.000
54.230 329.000 1.000
54.240 340.000 1.000
54.250 334.000 1.000
54.260 318.000 1.000
54.270 339.000 1.000
54.280 340.000 1.000
54.290 318.000 1.000
54.300 315.000 1.000
54.310 328.000 1.000
54.320 354.000 1.000
54.330 325.000 1.000
54.340 318.000 1.000
54.350 321.000 1.000
54.360 307.000 1.000
54.370 329.000 1.000
54.380 346.000 1.000
54.390 335.000 1.000
54.400 310.000 1.000
54.410 316.000 1.000
54.420 317.000 1.000
54.430 322.000 1.000
54.440 323.000 1.000
54.450 316.000 1.000
54.460 310.000 1.000
54.470 305.000 1.000
54.480 306.000 1.000
54.490 317.000 1.000
54.500 304.000 1.000
54.510 316.000 1.000
54.520 323.000 1.000
54.530 313.000 1.000
54.540 308.000 1.000
54.550 314.000 1.000
54.560 298.000 1.000
54.570 293.000 1.000
54.580 283.000 1.000
54.590 282.000 1.000
54.600 319.000 1.000
54.610 326.000 1.000
54.620 309.000 1.000
54.630 314.000 1.000
54.640 307.000 1.000
54.650 307.000 1.000
54.660 318.000 1.000
54.670 308.000 1.000
54.680 286.000 1.000
54.690 289.000 1.000
54.700 303.000 1.000
54.710 296.000 1.000
54.720 288.000 1.000
54.730 305.000 1.000
54.740 299.000 1.000
54.750 286.000 1.000
54.760 291.000 1.000
54.770 291.000 1.000
54.780 281.000 1.000
54.790 285.000 1.000
54.800 285.000 1.000
54.810 292.000 1.000
54.820 282.000 1.000
54.830 304.000 1.000
54.840 293.000 1.000
54.850 271.000 1.000
54.860 261.000 1.000
54.870 278.000 1.000
54.880 293.000 1.000
54.890 280.000 1.000
54.900 281.000 1.000
54.910 271.000 1.000
54.920 276.000 1.000
54.930 284.000 1.000
54.940 282.000 1.000
54.950 278.000 1.000
54.960 275.000 1.000
54.970 297.000 1.000
54.980 294.000 1.000
54.990 296.000 1.000
55.000 282.000 1.000
*RAS_INT_END
*RAS_DATA_END
