*RAS_DATA_START
*RAS_HEADER_START
*CORR_POS_DB_NAME "Sample"
*CORR_POS_GONIO_RADIUS ""
*CORR_POS_NODE_INDEX01 ""
*CORR_POS_NODE_INDEX02 ""
*CORR_POS_NODE_INDEX03 ""
*CORR_POS_NODE_INDEX04 ""
*CORR_POS_NODE_INDEX05 ""
*CORR_POS_NODE_INDEX06 ""
*CORR_POS_NODE_INDEX07 ""
*CORR_POS_NODE_INDEX08 ""
*CORR_POS_NODE_INDEX09 ""
*CORR_POS_NODE_INDEX10 ""
*CORR_POS_NODE_INDEX11 ""
*CORR_POS_NODE_LABEL01 "Si(111)"
*CORR_POS_NODE_LABEL02 "Si(220)"
*CORR_POS_NODE_LABEL03 "Si(311)"
*CORR_POS_NODE_LABEL04 "Si(400)"
*CORR_POS_NODE_LABEL05 "Si(331)"
*CORR_POS_NODE_LABEL06 "Si(422)"
*CORR_POS_NODE_LABEL07 "Si(511)"
*CORR_POS_NODE_LABEL08 "Si(440)"
*CORR_POS_NODE_LABEL09 "Si(531)"
*CORR_POS_NODE_LABEL10 "Si(620)"
*CORR_POS_NODE_LABEL11 "Si(533)"
*CORR_POS_NODE_POS_CALC01 "28.377"
*CORR_POS_NODE_POS_CALC02 "47.2506"
*CORR_POS_NODE_POS_CALC03 "56.0725"
*CORR_POS_NODE_POS_CALC04 "69.0822"
*CORR_POS_NODE_POS_CALC05 "76.3294"
*CORR_POS_NODE_POS_CALC06 "87.9853"
*CORR_POS_NODE_POS_CALC07 "94.9091"
*CORR_POS_NODE_POS_CALC08 "106.668"
*CORR_POS_NODE_POS_CALC09 "114.054"
*CORR_POS_NODE_POS_CALC10 "127.511"
*CORR_POS_NODE_POS_CALC11 "136.864"
*CORR_POS_NODE_POS_MEAS01 "28.377"
*CORR_POS_NODE_POS_MEAS02 "47.2506"
*CORR_POS_NODE_POS_MEAS03 "56.0725"
*CORR_POS_NODE_POS_MEAS04 "69.0822"
*CORR_POS_NODE_POS_MEAS05 "76.3294"
*CORR_POS_NODE_POS_MEAS06 "87.9853"
*CORR_POS_NODE_POS_MEAS07 "94.9091"
*CORR_POS_NODE_POS_MEAS08 "106.668"
*CORR_POS_NODE_POS_MEAS09 "114.054"
*CORR_POS_NODE_POS_MEAS10 "127.511"
*CORR_POS_NODE_POS_MEAS11 "136.864"
*CORR_POS_OPT_ATTR "集中法"
*CORR_POS_PARAM_MU ""
*CORR_POS_PARAM_PL ""
*CORR_POS_SEMODEL_TYPE "0"
*CORR_POS_STANDARD_TYPE ""
*CORR_POS_VALUE_ANALYZER "None"
*CORR_POS_VALUE_CMONO "None"
*CORR_POS_VALUE_IMONO "None"
*CORR_POS_VALUE_IS "1.250deg"
*CORR_POS_VALUE_ISL "10.0mm"
*CORR_POS_VALUE_ISOLLER "5.0deg"
*CORR_POS_VALUE_RS1 "1.250deg"
*CORR_POS_VALUE_RS2 "0.3mm"
*CORR_POS_VALUE_RSOLLER "5.0deg"
*CORR_POS_XG_FOCUS_L ""
*CORR_POS_XG_WAVE_TYPE ""
*CORR_POS_XG_WAVE_VALUE ""
*DISP_FMT_X "%.2f"
*DISP_FMT_Y "%.0f"
*DISP_FULLSCALE "12520.0000000000"
*DISP_LINE_COLOR "255.0000000000"
*DISP_LINE_STYLE "0.0000000000"
*DISP_LINE_WIDTH "0.2500000000"
*DISP_NOTE "測定データ-2"
*DISP_OFFSET_Y "0.0000000000"
*DISP_PEAKSEARCH_UNIT_Y "CPS"
*DISP_RANGE_BOTTOM "0.0000000000"
*DISP_RANGE_LEFT "3.0000000000"
*DISP_RANGE_LOGCUTOFF "0.0100000000"
*DISP_RANGE_RIGHT "55.0000000000"
*DISP_RANGE_TOP "12520.0000000000"
*DISP_SCALE_MODE_Y "0.0000000000"
*DISP_TAB_NAME "2θ/θ"
*DISP_TITLE_Y "強度"
*DISP_UNIT_Y "CPS"
*DISP_WINDOW_NAME "MSG_MACROENGINE"
*FILE_COMMENT " "
*FILE_MD5 ""
*FILE_MEMO " "
*FILE_OPERATOR "Administrator"
*FILE_PART_ID "MEAS_PBEA_00223"
*FILE_SAMPLE " "
*FILE_TYPE "RAS_RAW"
*FILE_USERGROUP "システムマネージャ"
*FILE_VERSION "1.0000000000"
*HW_ATTACHMENT_ID "ATT1031"
*HW_ATTACHMENT_NAME "6サンプルチェンジャ|ASC-6"
*HW_COUNTER_ID-0 "CUT0025"
*HW_COUNTER_ID-1 "CUT0020"
*HW_COUNTER_ID-2 "CUT0020"
*HW_COUNTER_ID-3 "CMC0021"
*HW_COUNTER_NAME-0 "D/teX Ultra|D/teX Ultra"
*HW_COUNTER_NAME-1 "None|None"
*HW_COUNTER_NAME-2 "None|None"
*HW_COUNTER_NAME-3 "検出器モノクロメータ|Detector monochromator"
*HW_COUNTER_SELECT_NAME "D/teX Ultra|D/teX Ultra"
*HW_GONIOMETER_ID "GON0070"
*HW_GONIOMETER_NAME "MiniFlex 300/600|MiniFlex 300/600"
*HW_GONIOMETER_RADIUS-0 "79.0"
*HW_GONIOMETER_RADIUS-1 "91.5"
*HW_GONIOMETER_RADIUS-2 "150.0"
*HW_GONIOMETER_RADIUS-3 "0"
*HW_GONIOMETER_RADIUS-4 "103.4"
*HW_GONIOMETER_RADIUS-5 "150.0"
*HW_GONIOMETER_RADIUS-6 "46.6"
*HW_GONIOMETER_RADIUS-7 "160.0"
*HW_I_OPT_ID-0 "ISL0021"
*HW_I_OPT_ID-1 "ISO0021"
*HW_I_OPT_NAME-0 "発散スリット|Divergence slit"
*HW_I_OPT_NAME-1 "入射平行スリット|Incident parallel slit"
*HW_R_ATTENUATER_AUTOMODE "0"
*HW_R_OPT_ID-0 "RSS0021"
*HW_R_OPT_ID-1 "RSO0021"
*HW_R_OPT_ID-2 "RRS0021"
*HW_R_OPT_NAME-0 "散乱スリット|Scattering slit"
*HW_R_OPT_NAME-1 "受光平行スリット|Receiving soller slit"
*HW_R_OPT_NAME-2 "受光スリット|Receiving slit"
*HW_SAMPLE_HOLDER_ID "SMP0000"
*HW_SAMPLE_HOLDER_NAME "無し|None"
*HW_XG_CURRENT_MAX "15"
*HW_XG_CURRENT_MIN "2"
*HW_XG_CURRENT_RESOLUTION "1"
*HW_XG_CURRENT_UNIT "mA"
*HW_XG_FOCUS "1mm x 10mm"
*HW_XG_FOCUS_TYPE "Normal"
*HW_XG_ID "1060"
*HW_XG_NAME "300W/600W 封入管-B|300W/600W Sealed tube-B"
*HW_XG_TARGET_ATOMIC_NUMBER "29.0000000000"
*HW_XG_TARGET_NAME "Cu"
*HW_XG_TYPE "Hermetic"
*HW_XG_VOLTAGE_MAX "40"
*HW_XG_VOLTAGE_MIN "20"
*HW_XG_VOLTAGE_RESOLUTION "1"
*HW_XG_VOLTAGE_UNIT "kV"
*HW_XG_WATT_MAX "1"
*HW_XG_WATT_UNIT "kW"
*HW_XG_WAVE_LENGTH_ALPHA1 "1.540593"
*HW_XG_WAVE_LENGTH_ALPHA2 "1.544414"
*HW_XG_WAVE_LENGTH_BETA "1.392250"
*MEAS_COND_AXIS_NAME-0 "2θ/θ"
*MEAS_COND_AXIS_NAME-1 "試料回転"
*MEAS_COND_AXIS_NAME-2 "試料交換"
*MEAS_COND_AXIS_NAME-3 "Soller(inc.)"
*MEAS_COND_AXIS_NAME-4 "IHS"
*MEAS_COND_AXIS_NAME-5 "DS"
*MEAS_COND_AXIS_NAME-6 "SS"
*MEAS_COND_AXIS_NAME-7 "Soller(rec.)"
*MEAS_COND_AXIS_NAME-8 "RS"
*MEAS_COND_AXIS_NAME-9 "フィルター"
*MEAS_COND_AXIS_NAME-10 "モノクロメータ"
*MEAS_COND_AXIS_NAME-11 "PHA"
*MEAS_COND_AXIS_NAME_INTERNAL-0 "TwoThetaTheta"
*MEAS_COND_AXIS_NAME_INTERNAL-1 "Spin"
*MEAS_COND_AXIS_NAME_INTERNAL-2 "Change"
*MEAS_COND_AXIS_NAME_INTERNAL-3 "IncidentSollerSlit"
*MEAS_COND_AXIS_NAME_INTERNAL-4 "IncidentAxdSlit"
*MEAS_COND_AXIS_NAME_INTERNAL-5 "IncidentSlitBox"
*MEAS_COND_AXIS_NAME_INTERNAL-6 "ReceivingSlitBox1"
*MEAS_COND_AXIS_NAME_INTERNAL-7 "ReceivingSollerSlit"
*MEAS_COND_AXIS_NAME_INTERNAL-8 "ReceivingSlitBox2"
*MEAS_COND_AXIS_NAME_INTERNAL-9 "Filter"
*MEAS_COND_AXIS_NAME_INTERNAL-10 "CounterMonochromator"
*MEAS_COND_AXIS_NAME_INTERNAL-11 "PHA"
*MEAS_COND_AXIS_NAME_MAGICNO-0 "268632064.0000000000"
*MEAS_COND_AXIS_NAME_MAGICNO-1 "16842752.0000000000"
*MEAS_COND_AXIS_NAME_MAGICNO-2 "16842752.0000000000"
*MEAS_COND_AXIS_NAME_MAGICNO-3 "20971521.0000000000"
*MEAS_COND_AXIS_NAME_MAGICNO-4 "22020097.0000000000"
*MEAS_COND_AXIS_NAME_MAGICNO-5 "22020097.0000000000"
*MEAS_COND_AXIS_NAME_MAGICNO-6 "23068673.0000000000"
*MEAS_COND_AXIS_NAME_MAGICNO-7 "20971521.0000000000"
*MEAS_COND_AXIS_NAME_MAGICNO-8 "23068673.0000000000"
*MEAS_COND_AXIS_NAME_MAGICNO-9 "20971521.0000000000"
*MEAS_COND_AXIS_NAME_MAGICNO-10 "20971521.0000000000"
*MEAS_COND_AXIS_NAME_MAGICNO-11 "0.0000000000"
*MEAS_COND_AXIS_OFFSET-0 "0.0000000000"
*MEAS_COND_AXIS_OFFSET-1 "-"
*MEAS_COND_AXIS_OFFSET-2 "-"
*MEAS_COND_AXIS_OFFSET-3 "-"
*MEAS_COND_AXIS_OFFSET-4 "-"
*MEAS_COND_AXIS_OFFSET-5 "-"
*MEAS_COND_AXIS_OFFSET-6 "-"
*MEAS_COND_AXIS_OFFSET-7 "-"
*MEAS_COND_AXIS_OFFSET-8 "-"
*MEAS_COND_AXIS_OFFSET-9 "-"
*MEAS_COND_AXIS_OFFSET-10 "-"
*MEAS_COND_AXIS_OFFSET-11 "-"
*MEAS_COND_AXIS_POSITION-0 "10.0000000000"
*MEAS_COND_AXIS_POSITION-1 "0.0000000000"
*MEAS_COND_AXIS_POSITION-2 "4.0000000000"
*MEAS_COND_AXIS_POSITION-3 "2.5deg"
*MEAS_COND_AXIS_POSITION-4 "10.0mm"
*MEAS_COND_AXIS_POSITION-5 "1.250deg"
*MEAS_COND_AXIS_POSITION-6 "13.0mm(Open)"
*MEAS_COND_AXIS_POSITION-7 "2.5deg"
*MEAS_COND_AXIS_POSITION-8 "13.0mm"
*MEAS_COND_AXIS_POSITION-9 "K-beta(x1)"
*MEAS_COND_AXIS_POSITION-10 "None"
*MEAS_COND_AXIS_POSITION-11 "34.0000000000"
*MEAS_COND_AXIS_UNIT-0 "deg"
*MEAS_COND_AXIS_UNIT-1 ""
*MEAS_COND_AXIS_UNIT-2 ""
*MEAS_COND_AXIS_UNIT-3 ""
*MEAS_COND_AXIS_UNIT-4 ""
*MEAS_COND_AXIS_UNIT-5 ""
*MEAS_COND_AXIS_UNIT-6 ""
*MEAS_COND_AXIS_UNIT-7 ""
*MEAS_COND_AXIS_UNIT-8 ""
*MEAS_COND_AXIS_UNIT-9 ""
*MEAS_COND_AXIS_UNIT-10 ""
*MEAS_COND_AXIS_UNIT-11 "div"
*MEAS_COND_COUNTER_CNTLOSS_CORR "0.0000000000"
*MEAS_COND_COUNTER_PHABASE "34.0000000000"
*MEAS_COND_COUNTER_PHAWINDOW "14.0000000000"
*MEAS_COND_COUNTER_PHA_UNIT "div"
*MEAS_COND_COUNTER_TAUDIFF "0.2500000000"
*MEAS_COND_COUNTER_TAUINT "0.7500000000"
*MEAS_COND_IRRADIATION_MODE "OFF"
*MEAS_COND_IRRADIATION_WIDTH ""
*MEAS_COND_OPT_ATTR " "
*MEAS_COND_OPT_NAME ""
*MEAS_COND_UNSYMMETRIC_MODE "OFF"
*MEAS_COND_XG_CURRENT "15.0000000000"
*MEAS_COND_XG_VOLTAGE "40.0000000000"
*MEAS_COND_XG_WAVE_TYPE "Ka"
*MEAS_DATA_COUNT "5201.0000000000"
*MEAS_SCAN_AXIS_X "2θ/θ"
*MEAS_SCAN_AXIS_X_INTERNAL "TwoThetaTheta"
*MEAS_SCAN_END_TIME "11/22/23 15:41:14"
*MEAS_SCAN_MODE "CONTINUOUS"
*MEAS_SCAN_MONITOR "0"
*MEAS_SCAN_RESOLUTION_X "0.005"
*MEAS_SCAN_SPEED "10.000"
*MEAS_SCAN_SPEED_UNIT "deg/min"
*MEAS_SCAN_SPEED_USER "10.000"
*MEAS_SCAN_START "3.0000000000"
*MEAS_SCAN_START_TIME "11/22/23 15:35:14"
*MEAS_SCAN_STEP "0.0100000000"
*MEAS_SCAN_STOP "55.0000000000"
*MEAS_SCAN_UNIT_X "deg"
*MEAS_SCAN_UNIT_Y "counts"
*SLIT_SYSTEM "0"
*RAS_HEADER_END
*RAS_INT_START
3.000 52.000 1.000
3.010 55.000 1.000
3.020 50.000 1.000
3.030 56.000 1.000
3.040 52.000 1.000
3.050 48.000 1.000
3.060 41.000 1.000
3.070 48.000 1.000
3.080 45.000 1.000
3.090 48.000 1.000
3.100 52.000 1.000
3.110 43.000 1.000
3.120 53.000 1.000
3.130 47.000 1.000
3.140 53.000 1.000
3.150 56.000 1.000
3.160 49.000 1.000
3.170 56.000 1.000
3.180 43.000 1.000
3.190 49.000 1.000
3.200 53.000 1.000
3.210 55.000 1.000
3.220 50.000 1.000
3.230 52.000 1.000
3.240 53.000 1.000
3.250 59.000 1.000
3.260 53.000 1.000
3.270 55.000 1.000
3.280 62.000 1.000
3.290 61.000 1.000
3.300 60.000 1.000
3.310 54.000 1.000
3.320 45.000 1.000
3.330 43.000 1.000
3.340 44.000 1.000
3.350 50.000 1.000
3.360 48.000 1.000
3.370 51.000 1.000
3.380 36.000 1.000
3.390 35.000 1.000
3.400 44.000 1.000
3.410 41.000 1.000
3.420 38.000 1.000
3.430 40.000 1.000
3.440 42.000 1.000
3.450 48.000 1.000
3.460 46.000 1.000
3.470 42.000 1.000
3.480 53.000 1.000
3.490 42.000 1.000
3.500 37.000 1.000
3.510 32.000 1.000
3.520 40.000 1.000
3.530 32.000 1.000
3.540 35.000 1.000
3.550 33.000 1.000
3.560 28.000 1.000
3.570 38.000 1.000
3.580 32.000 1.000
3.590 30.000 1.000
3.600 36.000 1.000
3.610 36.000 1.000
3.620 36.000 1.000
3.630 34.000 1.000
3.640 31.000 1.000
3.650 32.000 1.000
3.660 35.000 1.000
3.670 39.000 1.000
3.680 35.000 1.000
3.690 33.000 1.000
3.700 34.000 1.000
3.710 38.000 1.000
3.720 41.000 1.000
3.730 41.000 1.000
3.740 40.000 1.000
3.750 34.000 1.000
3.760 36.000 1.000
3.770 40.000 1.000
3.780 42.000 1.000
3.790 38.000 1.000
3.800 36.000 1.000
3.810 31.000 1.000
3.820 38.000 1.000
3.830 34.000 1.000
3.840 36.000 1.000
3.850 38.000 1.000
3.860 35.000 1.000
3.870 37.000 1.000
3.880 34.000 1.000
3.890 34.000 1.000
3.900 31.000 1.000
3.910 38.000 1.000
3.920 37.000 1.000
3.930 36.000 1.000
3.940 37.000 1.000
3.950 39.000 1.000
3.960 31.000 1.000
3.970 35.000 1.000
3.980 33.000 1.000
3.990 26.000 1.000
4.000 26.000 1.000
4.010 32.000 1.000
4.020 32.000 1.000
4.030 34.000 1.000
4.040 28.000 1.000
4.050 32.000 1.000
4.060 32.000 1.000
4.070 32.000 1.000
4.080 28.000 1.000
4.090 23.000 1.000
4.100 29.000 1.000
4.110 29.000 1.000
4.120 31.000 1.000
4.130 38.000 1.000
4.140 30.000 1.000
4.150 28.000 1.000
4.160 23.000 1.000
4.170 28.000 1.000
4.180 28.000 1.000
4.190 33.000 1.000
4.200 37.000 1.000
4.210 33.000 1.000
4.220 31.000 1.000
4.230 33.000 1.000
4.240 32.000 1.000
4.250 33.000 1.000
4.260 30.000 1.000
4.270 24.000 1.000
4.280 26.000 1.000
4.290 28.000 1.000
4.300 28.000 1.000
4.310 31.000 1.000
4.320 31.000 1.000
4.330 26.000 1.000
4.340 24.000 1.000
4.350 29.000 1.000
4.360 29.000 1.000
4.370 31.000 1.000
4.380 27.000 1.000
4.390 32.000 1.000
4.400 28.000 1.000
4.410 26.000 1.000
4.420 27.000 1.000
4.430 24.000 1.000
4.440 26.000 1.000
4.450 22.000 1.000
4.460 23.000 1.000
4.470 24.000 1.000
4.480 25.000 1.000
4.490 27.000 1.000
4.500 30.000 1.000
4.510 36.000 1.000
4.520 31.000 1.000
4.530 26.000 1.000
4.540 31.000 1.000
4.550 28.000 1.000
4.560 25.000 1.000
4.570 29.000 1.000
4.580 28.000 1.000
4.590 24.000 1.000
4.600 26.000 1.000
4.610 28.000 1.000
4.620 26.000 1.000
4.630 22.000 1.000
4.640 26.000 1.000
4.650 30.000 1.000
4.660 24.000 1.000
4.670 27.000 1.000
4.680 26.000 1.000
4.690 23.000 1.000
4.700 21.000 1.000
4.710 26.000 1.000
4.720 27.000 1.000
4.730 24.000 1.000
4.740 30.000 1.000
4.750 28.000 1.000
4.760 27.000 1.000
4.770 30.000 1.000
4.780 27.000 1.000
4.790 21.000 1.000
4.800 25.000 1.000
4.810 25.000 1.000
4.820 27.000 1.000
4.830 24.000 1.000
4.840 37.000 1.000
4.850 36.000 1.000
4.860 27.000 1.000
4.870 26.000 1.000
4.880 28.000 1.000
4.890 25.000 1.000
4.900 27.000 1.000
4.910 29.000 1.000
4.920 26.000 1.000
4.930 29.000 1.000
4.940 27.000 1.000
4.950 24.000 1.000
4.960 28.000 1.000
4.970 34.000 1.000
4.980 29.000 1.000
4.990 23.000 1.000
5.000 20.000 1.000
5.010 30.000 1.000
5.020 29.000 1.000
5.030 35.000 1.000
5.040 32.000 1.000
5.050 33.000 1.000
5.060 32.000 1.000
5.070 36.000 1.000
5.080 29.000 1.000
5.090 36.000 1.000
5.100 33.000 1.000
5.110 31.000 1.000
5.120 37.000 1.000
5.130 35.000 1.000
5.140 35.000 1.000
5.150 33.000 1.000
5.160 29.000 1.000
5.170 32.000 1.000
5.180 40.000 1.000
5.190 40.000 1.000
5.200 41.000 1.000
5.210 35.000 1.000
5.220 32.000 1.000
5.230 30.000 1.000
5.240 28.000 1.000
5.250 41.000 1.000
5.260 38.000 1.000
5.270 40.000 1.000
5.280 36.000 1.000
5.290 40.000 1.000
5.300 39.000 1.000
5.310 34.000 1.000
5.320 36.000 1.000
5.330 34.000 1.000
5.340 33.000 1.000
5.350 35.000 1.000
5.360 31.000 1.000
5.370 28.000 1.000
5.380 28.000 1.000
5.390 43.000 1.000
5.400 33.000 1.000
5.410 32.000 1.000
5.420 37.000 1.000
5.430 35.000 1.000
5.440 33.000 1.000
5.450 28.000 1.000
5.460 25.000 1.000
5.470 21.000 1.000
5.480 25.000 1.000
5.490 21.000 1.000
5.500 23.000 1.000
5.510 21.000 1.000
5.520 23.000 1.000
5.530 28.000 1.000
5.540 24.000 1.000
5.550 24.000 1.000
5.560 18.000 1.000
5.570 17.000 1.000
5.580 26.000 1.000
5.590 22.000 1.000
5.600 18.000 1.000
5.610 29.000 1.000
5.620 21.000 1.000
5.630 24.000 1.000
5.640 27.000 1.000
5.650 28.000 1.000
5.660 24.000 1.000
5.670 22.000 1.000
5.680 19.000 1.000
5.690 23.000 1.000
5.700 21.000 1.000
5.710 22.000 1.000
5.720 27.000 1.000
5.730 27.000 1.000
5.740 29.000 1.000
5.750 31.000 1.000
5.760 29.000 1.000
5.770 27.000 1.000
5.780 28.000 1.000
5.790 33.000 1.000
5.800 25.000 1.000
5.810 19.000 1.000
5.820 24.000 1.000
5.830 29.000 1.000
5.840 35.000 1.000
5.850 32.000 1.000
5.860 33.000 1.000
5.870 26.000 1.000
5.880 22.000 1.000
5.890 25.000 1.000
5.900 23.000 1.000
5.910 23.000 1.000
5.920 21.000 1.000
5.930 23.000 1.000
5.940 16.000 1.000
5.950 24.000 1.000
5.960 26.000 1.000
5.970 22.000 1.000
5.980 23.000 1.000
5.990 27.000 1.000
6.000 24.000 1.000
6.010 28.000 1.000
6.020 34.000 1.000
6.030 30.000 1.000
6.040 28.000 1.000
6.050 25.000 1.000
6.060 24.000 1.000
6.070 22.000 1.000
6.080 22.000 1.000
6.090 19.000 1.000
6.100 22.000 1.000
6.110 28.000 1.000
6.120 23.000 1.000
6.130 17.000 1.000
6.140 21.000 1.000
6.150 24.000 1.000
6.160 21.000 1.000
6.170 19.000 1.000
6.180 27.000 1.000
6.190 27.000 1.000
6.200 23.000 1.000
6.210 25.000 1.000
6.220 21.000 1.000
6.230 26.000 1.000
6.240 26.000 1.000
6.250 26.000 1.000
6.260 25.000 1.000
6.270 26.000 1.000
6.280 24.000 1.000
6.290 19.000 1.000
6.300 21.000 1.000
6.310 28.000 1.000
6.320 28.000 1.000
6.330 32.000 1.000
6.340 20.000 1.000
6.350 17.000 1.000
6.360 22.000 1.000
6.370 26.000 1.000
6.380 22.000 1.000
6.390 20.000 1.000
6.400 23.000 1.000
6.410 24.000 1.000
6.420 24.000 1.000
6.430 25.000 1.000
6.440 26.000 1.000
6.450 23.000 1.000
6.460 24.000 1.000
6.470 25.000 1.000
6.480 25.000 1.000
6.490 29.000 1.000
6.500 21.000 1.000
6.510 19.000 1.000
6.520 23.000 1.000
6.530 29.000 1.000
6.540 26.000 1.000
6.550 23.000 1.000
6.560 22.000 1.000
6.570 21.000 1.000
6.580 23.000 1.000
6.590 23.000 1.000
6.600 24.000 1.000
6.610 23.000 1.000
6.620 17.000 1.000
6.630 20.000 1.000
6.640 18.000 1.000
6.650 29.000 1.000
6.660 29.000 1.000
6.670 18.000 1.000
6.680 23.000 1.000
6.690 18.000 1.000
6.700 22.000 1.000
6.710 25.000 1.000
6.720 21.000 1.000
6.730 18.000 1.000
6.740 22.000 1.000
6.750 18.000 1.000
6.760 26.000 1.000
6.770 30.000 1.000
6.780 24.000 1.000
6.790 19.000 1.000
6.800 26.000 1.000
6.810 29.000 1.000
6.820 28.000 1.000
6.830 30.000 1.000
6.840 26.000 1.000
6.850 18.000 1.000
6.860 19.000 1.000
6.870 24.000 1.000
6.880 28.000 1.000
6.890 21.000 1.000
6.900 22.000 1.000
6.910 21.000 1.000
6.920 14.000 1.000
6.930 20.000 1.000
6.940 26.000 1.000
6.950 25.000 1.000
6.960 28.000 1.000
6.970 25.000 1.000
6.980 23.000 1.000
6.990 20.000 1.000
7.000 26.000 1.000
7.010 28.000 1.000
7.020 19.000 1.000
7.030 20.000 1.000
7.040 19.000 1.000
7.050 22.000 1.000
7.060 32.000 1.000
7.070 31.000 1.000
7.080 24.000 1.000
7.090 26.000 1.000
7.100 30.000 1.000
7.110 27.000 1.000
7.120 24.000 1.000
7.130 21.000 1.000
7.140 14.000 1.000
7.150 17.000 1.000
7.160 28.000 1.000
7.170 28.000 1.000
7.180 22.000 1.000
7.190 26.000 1.000
7.200 30.000 1.000
7.210 23.000 1.000
7.220 26.000 1.000
7.230 24.000 1.000
7.240 25.000 1.000
7.250 29.000 1.000
7.260 26.000 1.000
7.270 26.000 1.000
7.280 24.000 1.000
7.290 18.000 1.000
7.300 29.000 1.000
7.310 32.000 1.000
7.320 27.000 1.000
7.330 20.000 1.000
7.340 30.000 1.000
7.350 27.000 1.000
7.360 25.000 1.000
7.370 20.000 1.000
7.380 30.000 1.000
7.390 28.000 1.000
7.400 27.000 1.000
7.410 23.000 1.000
7.420 32.000 1.000
7.430 29.000 1.000
7.440 29.000 1.000
7.450 28.000 1.000
7.460 24.000 1.000
7.470 22.000 1.000
7.480 23.000 1.000
7.490 26.000 1.000
7.500 30.000 1.000
7.510 30.000 1.000
7.520 36.000 1.000
7.530 30.000 1.000
7.540 31.000 1.000
7.550 32.000 1.000
7.560 25.000 1.000
7.570 30.000 1.000
7.580 26.000 1.000
7.590 34.000 1.000
7.600 36.000 1.000
7.610 33.000 1.000
7.620 31.000 1.000
7.630 33.000 1.000
7.640 37.000 1.000
7.650 37.000 1.000
7.660 38.000 1.000
7.670 39.000 1.000
7.680 44.000 1.000
7.690 41.000 1.000
7.700 39.000 1.000
7.710 44.000 1.000
7.720 48.000 1.000
7.730 50.000 1.000
7.740 55.000 1.000
7.750 50.000 1.000
7.760 52.000 1.000
7.770 71.000 1.000
7.780 87.000 1.000
7.790 92.000 1.000
7.800 94.000 1.000
7.810 111.000 1.000
7.820 127.000 1.000
7.830 151.000 1.000
7.840 150.000 1.000
7.850 178.000 1.000
7.860 209.000 1.000
7.870 215.000 1.000
7.880 235.000 1.000
7.890 236.000 1.000
7.900 233.000 1.000
7.910 251.000 1.000
7.920 258.000 1.000
7.930 254.000 1.000
7.940 242.000 1.000
7.950 210.000 1.000
7.960 188.000 1.000
7.970 190.000 1.000
7.980 166.000 1.000
7.990 134.000 1.000
8.000 108.000 1.000
8.010 87.000 1.000
8.020 76.000 1.000
8.030 74.000 1.000
8.040 62.000 1.000
8.050 55.000 1.000
8.060 47.000 1.000
8.070 44.000 1.000
8.080 36.000 1.000
8.090 40.000 1.000
8.100 33.000 1.000
8.110 36.000 1.000
8.120 42.000 1.000
8.130 39.000 1.000
8.140 37.000 1.000
8.150 38.000 1.000
8.160 38.000 1.000
8.170 42.000 1.000
8.180 36.000 1.000
8.190 42.000 1.000
8.200 37.000 1.000
8.210 37.000 1.000
8.220 36.000 1.000
8.230 37.000 1.000
8.240 31.000 1.000
8.250 39.000 1.000
8.260 31.000 1.000
8.270 34.000 1.000
8.280 32.000 1.000
8.290 32.000 1.000
8.300 41.000 1.000
8.310 34.000 1.000
8.320 27.000 1.000
8.330 28.000 1.000
8.340 32.000 1.000
8.350 34.000 1.000
8.360 32.000 1.000
8.370 32.000 1.000
8.380 40.000 1.000
8.390 36.000 1.000
8.400 30.000 1.000
8.410 25.000 1.000
8.420 28.000 1.000
8.430 30.000 1.000
8.440 24.000 1.000
8.450 28.000 1.000
8.460 31.000 1.000
8.470 30.000 1.000
8.480 26.000 1.000
8.490 30.000 1.000
8.500 42.000 1.000
8.510 38.000 1.000
8.520 36.000 1.000
8.530 39.000 1.000
8.540 40.000 1.000
8.550 42.000 1.000
8.560 35.000 1.000
8.570 29.000 1.000
8.580 27.000 1.000
8.590 29.000 1.000
8.600 25.000 1.000
8.610 34.000 1.000
8.620 31.000 1.000
8.630 24.000 1.000
8.640 21.000 1.000
8.650 25.000 1.000
8.660 30.000 1.000
8.670 35.000 1.000
8.680 42.000 1.000
8.690 33.000 1.000
8.700 35.000 1.000
8.710 38.000 1.000
8.720 33.000 1.000
8.730 26.000 1.000
8.740 32.000 1.000
8.750 43.000 1.000
8.760 38.000 1.000
8.770 35.000 1.000
8.780 26.000 1.000
8.790 28.000 1.000
8.800 36.000 1.000
8.810 28.000 1.000
8.820 27.000 1.000
8.830 32.000 1.000
8.840 35.000 1.000
8.850 36.000 1.000
8.860 40.000 1.000
8.870 34.000 1.000
8.880 27.000 1.000
8.890 35.000 1.000
8.900 31.000 1.000
8.910 32.000 1.000
8.920 39.000 1.000
8.930 32.000 1.000
8.940 31.000 1.000
8.950 44.000 1.000
8.960 44.000 1.000
8.970 37.000 1.000
8.980 34.000 1.000
8.990 32.000 1.000
9.000 28.000 1.000
9.010 29.000 1.000
9.020 36.000 1.000
9.030 36.000 1.000
9.040 40.000 1.000
9.050 31.000 1.000
9.060 27.000 1.000
9.070 32.000 1.000
9.080 21.000 1.000
9.090 31.000 1.000
9.100 35.000 1.000
9.110 35.000 1.000
9.120 29.000 1.000
9.130 34.000 1.000
9.140 39.000 1.000
9.150 38.000 1.000
9.160 33.000 1.000
9.170 33.000 1.000
9.180 31.000 1.000
9.190 38.000 1.000
9.200 33.000 1.000
9.210 28.000 1.000
9.220 34.000 1.000
9.230 40.000 1.000
9.240 38.000 1.000
9.250 36.000 1.000
9.260 31.000 1.000
9.270 38.000 1.000
9.280 30.000 1.000
9.290 34.000 1.000
9.300 37.000 1.000
9.310 34.000 1.000
9.320 36.000 1.000
9.330 33.000 1.000
9.340 33.000 1.000
9.350 31.000 1.000
9.360 24.000 1.000
9.370 32.000 1.000
9.380 39.000 1.000
9.390 42.000 1.000
9.400 39.000 1.000
9.410 38.000 1.000
9.420 39.000 1.000
9.430 43.000 1.000
9.440 39.000 1.000
9.450 50.000 1.000
9.460 37.000 1.000
9.470 42.000 1.000
9.480 42.000 1.000
9.490 36.000 1.000
9.500 43.000 1.000
9.510 45.000 1.000
9.520 35.000 1.000
9.530 33.000 1.000
9.540 38.000 1.000
9.550 34.000 1.000
9.560 33.000 1.000
9.570 38.000 1.000
9.580 41.000 1.000
9.590 39.000 1.000
9.600 35.000 1.000
9.610 34.000 1.000
9.620 42.000 1.000
9.630 39.000 1.000
9.640 35.000 1.000
9.650 35.000 1.000
9.660 33.000 1.000
9.670 35.000 1.000
9.680 32.000 1.000
9.690 34.000 1.000
9.700 36.000 1.000
9.710 36.000 1.000
9.720 39.000 1.000
9.730 39.000 1.000
9.740 45.000 1.000
9.750 29.000 1.000
9.760 24.000 1.000
9.770 34.000 1.000
9.780 41.000 1.000
9.790 30.000 1.000
9.800 30.000 1.000
9.810 37.000 1.000
9.820 33.000 1.000
9.830 26.000 1.000
9.840 34.000 1.000
9.850 38.000 1.000
9.860 32.000 1.000
9.870 29.000 1.000
9.880 35.000 1.000
9.890 32.000 1.000
9.900 35.000 1.000
9.910 35.000 1.000
9.920 35.000 1.000
9.930 38.000 1.000
9.940 36.000 1.000
9.950 35.000 1.000
9.960 34.000 1.000
9.970 28.000 1.000
9.980 32.000 1.000
9.990 32.000 1.000
10.000 31.000 1.000
10.010 29.000 1.000
10.020 34.000 1.000
10.030 38.000 1.000
10.040 43.000 1.000
10.050 33.000 1.000
10.060 26.000 1.000
10.070 33.000 1.000
10.080 36.000 1.000
10.090 34.000 1.000
10.100 34.000 1.000
10.110 28.000 1.000
10.120 29.000 1.000
10.130 25.000 1.000
10.140 30.000 1.000
10.150 25.000 1.000
10.160 29.000 1.000
10.170 29.000 1.000
10.180 37.000 1.000
10.190 37.000 1.000
10.200 40.000 1.000
10.210 36.000 1.000
10.220 30.000 1.000
10.230 34.000 1.000
10.240 33.000 1.000
10.250 29.000 1.000
10.260 32.000 1.000
10.270 36.000 1.000
10.280 37.000 1.000
10.290 36.000 1.000
10.300 30.000 1.000
10.310 32.000 1.000
10.320 42.000 1.000
10.330 35.000 1.000
10.340 42.000 1.000
10.350 38.000 1.000
10.360 36.000 1.000
10.370 35.000 1.000
10.380 35.000 1.000
10.390 33.000 1.000
10.400 31.000 1.000
10.410 39.000 1.000
10.420 44.000 1.000
10.430 40.000 1.000
10.440 47.000 1.000
10.450 49.000 1.000
10.460 39.000 1.000
10.470 34.000 1.000
10.480 38.000 1.000
10.490 34.000 1.000
10.500 42.000 1.000
10.510 53.000 1.000
10.520 56.000 1.000
10.530 49.000 1.000
10.540 41.000 1.000
10.550 53.000 1.000
10.560 58.000 1.000
10.570 51.000 1.000
10.580 58.000 1.000
10.590 58.000 1.000
10.600 43.000 1.000
10.610 55.000 1.000
10.620 66.000 1.000
10.630 49.000 1.000
10.640 46.000 1.000
10.650 52.000 1.000
10.660 67.000 1.000
10.670 57.000 1.000
10.680 55.000 1.000
10.690 54.000 1.000
10.700 51.000 1.000
10.710 49.000 1.000
10.720 59.000 1.000
10.730 68.000 1.000
10.740 56.000 1.000
10.750 47.000 1.000
10.760 52.000 1.000
10.770 54.000 1.000
10.780 46.000 1.000
10.790 54.000 1.000
10.800 61.000 1.000
10.810 56.000 1.000
10.820 63.000 1.000
10.830 58.000 1.000
10.840 47.000 1.000
10.850 43.000 1.000
10.860 45.000 1.000
10.870 48.000 1.000
10.880 50.000 1.000
10.890 50.000 1.000
10.900 70.000 1.000
10.910 64.000 1.000
10.920 71.000 1.000
10.930 68.000 1.000
10.940 65.000 1.000
10.950 67.000 1.000
10.960 65.000 1.000
10.970 71.000 1.000
10.980 76.000 1.000
10.990 76.000 1.000
11.000 84.000 1.000
11.010 92.000 1.000
11.020 88.000 1.000
11.030 83.000 1.000
11.040 93.000 1.000
11.050 103.000 1.000
11.060 115.000 1.000
11.070 145.000 1.000
11.080 161.000 1.000
11.090 165.000 1.000
11.100 147.000 1.000
11.110 168.000 1.000
11.120 189.000 1.000
11.130 216.000 1.000
11.140 217.000 1.000
11.150 231.000 1.000
11.160 256.000 1.000
11.170 270.000 1.000
11.180 291.000 1.000
11.190 282.000 1.000
11.200 285.000 1.000
11.210 290.000 1.000
11.220 290.000 1.000
11.230 293.000 1.000
11.240 273.000 1.000
11.250 273.000 1.000
11.260 265.000 1.000
11.270 264.000 1.000
11.280 245.000 1.000
11.290 223.000 1.000
11.300 222.000 1.000
11.310 178.000 1.000
11.320 165.000 1.000
11.330 157.000 1.000
11.340 145.000 1.000
11.350 118.000 1.000
11.360 114.000 1.000
11.370 120.000 1.000
11.380 104.000 1.000
11.390 99.000 1.000
11.400 86.000 1.000
11.410 84.000 1.000
11.420 90.000 1.000
11.430 77.000 1.000
11.440 74.000 1.000
11.450 71.000 1.000
11.460 72.000 1.000
11.470 67.000 1.000
11.480 63.000 1.000
11.490 67.000 1.000
11.500 66.000 1.000
11.510 66.000 1.000
11.520 53.000 1.000
11.530 56.000 1.000
11.540 49.000 1.000
11.550 46.000 1.000
11.560 50.000 1.000
11.570 60.000 1.000
11.580 56.000 1.000
11.590 52.000 1.000
11.600 47.000 1.000
11.610 44.000 1.000
11.620 52.000 1.000
11.630 51.000 1.000
11.640 57.000 1.000
11.650 54.000 1.000
11.660 54.000 1.000
11.670 56.000 1.000
11.680 56.000 1.000
11.690 53.000 1.000
11.700 50.000 1.000
11.710 48.000 1.000
11.720 55.000 1.000
11.730 61.000 1.000
11.740 61.000 1.000
11.750 50.000 1.000
11.760 70.000 1.000
11.770 70.000 1.000
11.780 53.000 1.000
11.790 48.000 1.000
11.800 54.000 1.000
11.810 45.000 1.000
11.820 45.000 1.000
11.830 52.000 1.000
11.840 48.000 1.000
11.850 44.000 1.000
11.860 42.000 1.000
11.870 46.000 1.000
11.880 47.000 1.000
11.890 47.000 1.000
11.900 47.000 1.000
11.910 41.000 1.000
11.920 38.000 1.000
11.930 41.000 1.000
11.940 49.000 1.000
11.950 40.000 1.000
11.960 48.000 1.000
11.970 39.000 1.000
11.980 37.000 1.000
11.990 47.000 1.000
12.000 48.000 1.000
12.010 42.000 1.000
12.020 43.000 1.000
12.030 42.000 1.000
12.040 42.000 1.000
12.050 39.000 1.000
12.060 40.000 1.000
12.070 44.000 1.000
12.080 43.000 1.000
12.090 43.000 1.000
12.100 49.000 1.000
12.110 45.000 1.000
12.120 45.000 1.000
12.130 46.000 1.000
12.140 47.000 1.000
12.150 39.000 1.000
12.160 35.000 1.000
12.170 38.000 1.000
12.180 49.000 1.000
12.190 44.000 1.000
12.200 44.000 1.000
12.210 47.000 1.000
12.220 48.000 1.000
12.230 52.000 1.000
12.240 42.000 1.000
12.250 44.000 1.000
12.260 38.000 1.000
12.270 33.000 1.000
12.280 41.000 1.000
12.290 42.000 1.000
12.300 43.000 1.000
12.310 37.000 1.000
12.320 33.000 1.000
12.330 42.000 1.000
12.340 43.000 1.000
12.350 42.000 1.000
12.360 42.000 1.000
12.370 44.000 1.000
12.380 38.000 1.000
12.390 45.000 1.000
12.400 40.000 1.000
12.410 40.000 1.000
12.420 45.000 1.000
12.430 35.000 1.000
12.440 40.000 1.000
12.450 40.000 1.000
12.460 38.000 1.000
12.470 45.000 1.000
12.480 53.000 1.000
12.490 41.000 1.000
12.500 42.000 1.000
12.510 41.000 1.000
12.520 45.000 1.000
12.530 48.000 1.000
12.540 42.000 1.000
12.550 42.000 1.000
12.560 39.000 1.000
12.570 43.000 1.000
12.580 45.000 1.000
12.590 42.000 1.000
12.600 35.000 1.000
12.610 46.000 1.000
12.620 43.000 1.000
12.630 30.000 1.000
12.640 40.000 1.000
12.650 33.000 1.000
12.660 38.000 1.000
12.670 39.000 1.000
12.680 45.000 1.000
12.690 50.000 1.000
12.700 38.000 1.000
12.710 34.000 1.000
12.720 49.000 1.000
12.730 49.000 1.000
12.740 40.000 1.000
12.750 44.000 1.000
12.760 48.000 1.000
12.770 43.000 1.000
12.780 40.000 1.000
12.790 38.000 1.000
12.800 40.000 1.000
12.810 42.000 1.000
12.820 47.000 1.000
12.830 46.000 1.000
12.840 41.000 1.000
12.850 56.000 1.000
12.860 60.000 1.000
12.870 49.000 1.000
12.880 39.000 1.000
12.890 47.000 1.000
12.900 39.000 1.000
12.910 52.000 1.000
12.920 56.000 1.000
12.930 52.000 1.000
12.940 46.000 1.000
12.950 51.000 1.000
12.960 54.000 1.000
12.970 57.000 1.000
12.980 54.000 1.000
12.990 44.000 1.000
13.000 51.000 1.000
13.010 46.000 1.000
13.020 53.000 1.000
13.030 56.000 1.000
13.040 49.000 1.000
13.050 47.000 1.000
13.060 54.000 1.000
13.070 50.000 1.000
13.080 54.000 1.000
13.090 56.000 1.000
13.100 50.000 1.000
13.110 57.000 1.000
13.120 61.000 1.000
13.130 66.000 1.000
13.140 58.000 1.000
13.150 53.000 1.000
13.160 52.000 1.000
13.170 65.000 1.000
13.180 63.000 1.000
13.190 56.000 1.000
13.200 66.000 1.000
13.210 64.000 1.000
13.220 61.000 1.000
13.230 61.000 1.000
13.240 66.000 1.000
13.250 65.000 1.000
13.260 76.000 1.000
13.270 80.000 1.000
13.280 75.000 1.000
13.290 83.000 1.000
13.300 88.000 1.000
13.310 94.000 1.000
13.320 98.000 1.000
13.330 87.000 1.000
13.340 95.000 1.000
13.350 90.000 1.000
13.360 101.000 1.000
13.370 104.000 1.000
13.380 110.000 1.000
13.390 118.000 1.000
13.400 103.000 1.000
13.410 113.000 1.000
13.420 110.000 1.000
13.430 113.000 1.000
13.440 120.000 1.000
13.450 115.000 1.000
13.460 128.000 1.000
13.470 130.000 1.000
13.480 130.000 1.000
13.490 115.000 1.000
13.500 116.000 1.000
13.510 99.000 1.000
13.520 93.000 1.000
13.530 97.000 1.000
13.540 103.000 1.000
13.550 83.000 1.000
13.560 91.000 1.000
13.570 96.000 1.000
13.580 85.000 1.000
13.590 74.000 1.000
13.600 66.000 1.000
13.610 70.000 1.000
13.620 80.000 1.000
13.630 65.000 1.000
13.640 56.000 1.000
13.650 58.000 1.000
13.660 55.000 1.000
13.670 60.000 1.000
13.680 61.000 1.000
13.690 48.000 1.000
13.700 52.000 1.000
13.710 45.000 1.000
13.720 50.000 1.000
13.730 51.000 1.000
13.740 57.000 1.000
13.750 55.000 1.000
13.760 45.000 1.000
13.770 51.000 1.000
13.780 56.000 1.000
13.790 54.000 1.000
13.800 50.000 1.000
13.810 53.000 1.000
13.820 48.000 1.000
13.830 45.000 1.000
13.840 50.000 1.000
13.850 44.000 1.000
13.860 44.000 1.000
13.870 46.000 1.000
13.880 46.000 1.000
13.890 44.000 1.000
13.900 40.000 1.000
13.910 40.000 1.000
13.920 44.000 1.000
13.930 50.000 1.000
13.940 51.000 1.000
13.950 57.000 1.000
13.960 40.000 1.000
13.970 45.000 1.000
13.980 42.000 1.000
13.990 49.000 1.000
14.000 47.000 1.000
14.010 40.000 1.000
14.020 38.000 1.000
14.030 39.000 1.000
14.040 42.000 1.000
14.050 45.000 1.000
14.060 44.000 1.000
14.070 54.000 1.000
14.080 51.000 1.000
14.090 41.000 1.000
14.100 47.000 1.000
14.110 47.000 1.000
14.120 46.000 1.000
14.130 42.000 1.000
14.140 52.000 1.000
14.150 48.000 1.000
14.160 41.000 1.000
14.170 43.000 1.000
14.180 49.000 1.000
14.190 42.000 1.000
14.200 44.000 1.000
14.210 44.000 1.000
14.220 48.000 1.000
14.230 53.000 1.000
14.240 46.000 1.000
14.250 41.000 1.000
14.260 51.000 1.000
14.270 62.000 1.000
14.280 61.000 1.000
14.290 56.000 1.000
14.300 51.000 1.000
14.310 54.000 1.000
14.320 55.000 1.000
14.330 56.000 1.000
14.340 50.000 1.000
14.350 48.000 1.000
14.360 56.000 1.000
14.370 58.000 1.000
14.380 52.000 1.000
14.390 48.000 1.000
14.400 56.000 1.000
14.410 51.000 1.000
14.420 51.000 1.000
14.430 59.000 1.000
14.440 52.000 1.000
14.450 44.000 1.000
14.460 44.000 1.000
14.470 39.000 1.000
14.480 46.000 1.000
14.490 46.000 1.000
14.500 40.000 1.000
14.510 43.000 1.000
14.520 43.000 1.000
14.530 38.000 1.000
14.540 51.000 1.000
14.550 58.000 1.000
14.560 61.000 1.000
14.570 56.000 1.000
14.580 45.000 1.000
14.590 46.000 1.000
14.600 53.000 1.000
14.610 51.000 1.000
14.620 39.000 1.000
14.630 42.000 1.000
14.640 41.000 1.000
14.650 43.000 1.000
14.660 49.000 1.000
14.670 46.000 1.000
14.680 49.000 1.000
14.690 46.000 1.000
14.700 48.000 1.000
14.710 55.000 1.000
14.720 51.000 1.000
14.730 48.000 1.000
14.740 41.000 1.000
14.750 44.000 1.000
14.760 61.000 1.000
14.770 59.000 1.000
14.780 46.000 1.000
14.790 52.000 1.000
14.800 53.000 1.000
14.810 59.000 1.000
14.820 51.000 1.000
14.830 51.000 1.000
14.840 54.000 1.000
14.850 62.000 1.000
14.860 58.000 1.000
14.870 51.000 1.000
14.880 57.000 1.000
14.890 54.000 1.000
14.900 51.000 1.000
14.910 46.000 1.000
14.920 48.000 1.000
14.930 53.000 1.000
14.940 54.000 1.000
14.950 54.000 1.000
14.960 50.000 1.000
14.970 38.000 1.000
14.980 56.000 1.000
14.990 46.000 1.000
15.000 44.000 1.000
15.010 56.000 1.000
15.020 57.000 1.000
15.030 55.000 1.000
15.040 68.000 1.000
15.050 59.000 1.000
15.060 51.000 1.000
15.070 57.000 1.000
15.080 61.000 1.000
15.090 59.000 1.000
15.100 47.000 1.000
15.110 41.000 1.000
15.120 53.000 1.000
15.130 51.000 1.000
15.140 51.000 1.000
15.150 56.000 1.000
15.160 40.000 1.000
15.170 43.000 1.000
15.180 49.000 1.000
15.190 58.000 1.000
15.200 59.000 1.000
15.210 50.000 1.000
15.220 57.000 1.000
15.230 53.000 1.000
15.240 59.000 1.000
15.250 60.000 1.000
15.260 58.000 1.000
15.270 58.000 1.000
15.280 56.000 1.000
15.290 52.000 1.000
15.300 46.000 1.000
15.310 55.000 1.000
15.320 60.000 1.000
15.330 55.000 1.000
15.340 62.000 1.000
15.350 71.000 1.000
15.360 69.000 1.000
15.370 73.000 1.000
15.380 65.000 1.000
15.390 71.000 1.000
15.400 76.000 1.000
15.410 71.000 1.000
15.420 64.000 1.000
15.430 70.000 1.000
15.440 79.000 1.000
15.450 75.000 1.000
15.460 73.000 1.000
15.470 71.000 1.000
15.480 59.000 1.000
15.490 70.000 1.000
15.500 72.000 1.000
15.510 78.000 1.000
15.520 83.000 1.000
15.530 78.000 1.000
15.540 78.000 1.000
15.550 81.000 1.000
15.560 89.000 1.000
15.570 94.000 1.000
15.580 89.000 1.000
15.590 84.000 1.000
15.600 82.000 1.000
15.610 99.000 1.000
15.620 100.000 1.000
15.630 87.000 1.000
15.640 82.000 1.000
15.650 98.000 1.000
15.660 111.000 1.000
15.670 115.000 1.000
15.680 118.000 1.000
15.690 111.000 1.000
15.700 109.000 1.000
15.710 107.000 1.000
15.720 112.000 1.000
15.730 125.000 1.000
15.740 144.000 1.000
15.750 152.000 1.000
15.760 165.000 1.000
15.770 170.000 1.000
15.780 187.000 1.000
15.790 221.000 1.000
15.800 273.000 1.000
15.810 333.000 1.000
15.820 343.000 1.000
15.830 352.000 1.000
15.840 374.000 1.000
15.850 416.000 1.000
15.860 482.000 1.000
15.870 521.000 1.000
15.880 533.000 1.000
15.890 550.000 1.000
15.900 542.000 1.000
15.910 581.000 1.000
15.920 622.000 1.000
15.930 611.000 1.000
15.940 619.000 1.000
15.950 626.000 1.000
15.960 613.000 1.000
15.970 600.000 1.000
15.980 539.000 1.000
15.990 518.000 1.000
16.000 456.000 1.000
16.010 401.000 1.000
16.020 385.000 1.000
16.030 318.000 1.000
16.040 290.000 1.000
16.050 254.000 1.000
16.060 221.000 1.000
16.070 194.000 1.000
16.080 176.000 1.000
16.090 163.000 1.000
16.100 135.000 1.000
16.110 141.000 1.000
16.120 146.000 1.000
16.130 130.000 1.000
16.140 120.000 1.000
16.150 119.000 1.000
16.160 108.000 1.000
16.170 107.000 1.000
16.180 117.000 1.000
16.190 114.000 1.000
16.200 114.000 1.000
16.210 101.000 1.000
16.220 93.000 1.000
16.230 82.000 1.000
16.240 75.000 1.000
16.250 90.000 1.000
16.260 94.000 1.000
16.270 81.000 1.000
16.280 76.000 1.000
16.290 77.000 1.000
16.300 90.000 1.000
16.310 91.000 1.000
16.320 75.000 1.000
16.330 78.000 1.000
16.340 77.000 1.000
16.350 76.000 1.000
16.360 90.000 1.000
16.370 94.000 1.000
16.380 86.000 1.000
16.390 90.000 1.000
16.400 86.000 1.000
16.410 97.000 1.000
16.420 84.000 1.000
16.430 75.000 1.000
16.440 67.000 1.000
16.450 81.000 1.000
16.460 87.000 1.000
16.470 75.000 1.000
16.480 71.000 1.000
16.490 75.000 1.000
16.500 70.000 1.000
16.510 69.000 1.000
16.520 74.000 1.000
16.530 71.000 1.000
16.540 79.000 1.000
16.550 73.000 1.000
16.560 72.000 1.000
16.570 79.000 1.000
16.580 67.000 1.000
16.590 62.000 1.000
16.600 70.000 1.000
16.610 72.000 1.000
16.620 76.000 1.000
16.630 72.000 1.000
16.640 83.000 1.000
16.650 82.000 1.000
16.660 64.000 1.000
16.670 66.000 1.000
16.680 67.000 1.000
16.690 79.000 1.000
16.700 60.000 1.000
16.710 70.000 1.000
16.720 88.000 1.000
16.730 86.000 1.000
16.740 77.000 1.000
16.750 79.000 1.000
16.760 82.000 1.000
16.770 86.000 1.000
16.780 80.000 1.000
16.790 72.000 1.000
16.800 73.000 1.000
16.810 78.000 1.000
16.820 87.000 1.000
16.830 80.000 1.000
16.840 78.000 1.000
16.850 79.000 1.000
16.860 76.000 1.000
16.870 74.000 1.000
16.880 66.000 1.000
16.890 75.000 1.000
16.900 80.000 1.000
16.910 77.000 1.000
16.920 70.000 1.000
16.930 68.000 1.000
16.940 70.000 1.000
16.950 65.000 1.000
16.960 66.000 1.000
16.970 72.000 1.000
16.980 72.000 1.000
16.990 76.000 1.000
17.000 72.000 1.000
17.010 66.000 1.000
17.020 74.000 1.000
17.030 69.000 1.000
17.040 77.000 1.000
17.050 67.000 1.000
17.060 75.000 1.000
17.070 80.000 1.000
17.080 77.000 1.000
17.090 80.000 1.000
17.100 86.000 1.000
17.110 88.000 1.000
17.120 77.000 1.000
17.130 81.000 1.000
17.140 85.000 1.000
17.150 89.000 1.000
17.160 85.000 1.000
17.170 76.000 1.000
17.180 79.000 1.000
17.190 81.000 1.000
17.200 78.000 1.000
17.210 73.000 1.000
17.220 72.000 1.000
17.230 73.000 1.000
17.240 74.000 1.000
17.250 86.000 1.000
17.260 101.000 1.000
17.270 94.000 1.000
17.280 78.000 1.000
17.290 69.000 1.000
17.300 65.000 1.000
17.310 72.000 1.000
17.320 59.000 1.000
17.330 65.000 1.000
17.340 67.000 1.000
17.350 65.000 1.000
17.360 79.000 1.000
17.370 79.000 1.000
17.380 68.000 1.000
17.390 59.000 1.000
17.400 66.000 1.000
17.410 62.000 1.000
17.420 64.000 1.000
17.430 74.000 1.000
17.440 84.000 1.000
17.450 81.000 1.000
17.460 72.000 1.000
17.470 67.000 1.000
17.480 69.000 1.000
17.490 68.000 1.000
17.500 73.000 1.000
17.510 77.000 1.000
17.520 74.000 1.000
17.530 64.000 1.000
17.540 76.000 1.000
17.550 77.000 1.000
17.560 72.000 1.000
17.570 73.000 1.000
17.580 71.000 1.000
17.590 66.000 1.000
17.600 60.000 1.000
17.610 63.000 1.000
17.620 68.000 1.000
17.630 67.000 1.000
17.640 74.000 1.000
17.650 85.000 1.000
17.660 87.000 1.000
17.670 90.000 1.000
17.680 75.000 1.000
17.690 77.000 1.000
17.700 86.000 1.000
17.710 96.000 1.000
17.720 101.000 1.000
17.730 116.000 1.000
17.740 109.000 1.000
17.750 92.000 1.000
17.760 91.000 1.000
17.770 89.000 1.000
17.780 96.000 1.000
17.790 117.000 1.000
17.800 121.000 1.000
17.810 110.000 1.000
17.820 109.000 1.000
17.830 112.000 1.000
17.840 109.000 1.000
17.850 98.000 1.000
17.860 111.000 1.000
17.870 121.000 1.000
17.880 122.000 1.000
17.890 111.000 1.000
17.900 101.000 1.000
17.910 105.000 1.000
17.920 100.000 1.000
17.930 89.000 1.000
17.940 86.000 1.000
17.950 90.000 1.000
17.960 77.000 1.000
17.970 76.000 1.000
17.980 86.000 1.000
17.990 82.000 1.000
18.000 84.000 1.000
18.010 82.000 1.000
18.020 78.000 1.000
18.030 74.000 1.000
18.040 75.000 1.000
18.050 70.000 1.000
18.060 80.000 1.000
18.070 84.000 1.000
18.080 93.000 1.000
18.090 72.000 1.000
18.100 56.000 1.000
18.110 61.000 1.000
18.120 68.000 1.000
18.130 78.000 1.000
18.140 77.000 1.000
18.150 84.000 1.000
18.160 79.000 1.000
18.170 69.000 1.000
18.180 75.000 1.000
18.190 85.000 1.000
18.200 74.000 1.000
18.210 71.000 1.000
18.220 77.000 1.000
18.230 75.000 1.000
18.240 73.000 1.000
18.250 62.000 1.000
18.260 62.000 1.000
18.270 82.000 1.000
18.280 86.000 1.000
18.290 72.000 1.000
18.300 70.000 1.000
18.310 73.000 1.000
18.320 84.000 1.000
18.330 88.000 1.000
18.340 64.000 1.000
18.350 67.000 1.000
18.360 72.000 1.000
18.370 61.000 1.000
18.380 73.000 1.000
18.390 80.000 1.000
18.400 76.000 1.000
18.410 56.000 1.000
18.420 66.000 1.000
18.430 68.000 1.000
18.440 73.000 1.000
18.450 66.000 1.000
18.460 69.000 1.000
18.470 82.000 1.000
18.480 78.000 1.000
18.490 74.000 1.000
18.500 70.000 1.000
18.510 68.000 1.000
18.520 72.000 1.000
18.530 75.000 1.000
18.540 74.000 1.000
18.550 74.000 1.000
18.560 74.000 1.000
18.570 68.000 1.000
18.580 74.000 1.000
18.590 67.000 1.000
18.600 66.000 1.000
18.610 67.000 1.000
18.620 70.000 1.000
18.630 80.000 1.000
18.640 80.000 1.000
18.650 82.000 1.000
18.660 75.000 1.000
18.670 76.000 1.000
18.680 68.000 1.000
18.690 73.000 1.000
18.700 83.000 1.000
18.710 80.000 1.000
18.720 81.000 1.000
18.730 75.000 1.000
18.740 70.000 1.000
18.750 69.000 1.000
18.760 63.000 1.000
18.770 64.000 1.000
18.780 70.000 1.000
18.790 78.000 1.000
18.800 82.000 1.000
18.810 78.000 1.000
18.820 71.000 1.000
18.830 76.000 1.000
18.840 67.000 1.000
18.850 66.000 1.000
18.860 60.000 1.000
18.870 72.000 1.000
18.880 71.000 1.000
18.890 62.000 1.000
18.900 69.000 1.000
18.910 70.000 1.000
18.920 61.000 1.000
18.930 70.000 1.000
18.940 75.000 1.000
18.950 69.000 1.000
18.960 78.000 1.000
18.970 66.000 1.000
18.980 83.000 1.000
18.990 82.000 1.000
19.000 85.000 1.000
19.010 74.000 1.000
19.020 70.000 1.000
19.030 73.000 1.000
19.040 86.000 1.000
19.050 86.000 1.000
19.060 76.000 1.000
19.070 91.000 1.000
19.080 94.000 1.000
19.090 93.000 1.000
19.100 94.000 1.000
19.110 103.000 1.000
19.120 95.000 1.000
19.130 89.000 1.000
19.140 105.000 1.000
19.150 104.000 1.000
19.160 93.000 1.000
19.170 93.000 1.000
19.180 100.000 1.000
19.190 101.000 1.000
19.200 124.000 1.000
19.210 101.000 1.000
19.220 101.000 1.000
19.230 113.000 1.000
19.240 116.000 1.000
19.250 102.000 1.000
19.260 109.000 1.000
19.270 121.000 1.000
19.280 102.000 1.000
19.290 91.000 1.000
19.300 97.000 1.000
19.310 103.000 1.000
19.320 100.000 1.000
19.330 90.000 1.000
19.340 88.000 1.000
19.350 109.000 1.000
19.360 100.000 1.000
19.370 83.000 1.000
19.380 100.000 1.000
19.390 91.000 1.000
19.400 106.000 1.000
19.410 93.000 1.000
19.420 94.000 1.000
19.430 93.000 1.000
19.440 93.000 1.000
19.450 90.000 1.000
19.460 80.000 1.000
19.470 82.000 1.000
19.480 85.000 1.000
19.490 88.000 1.000
19.500 80.000 1.000
19.510 87.000 1.000
19.520 80.000 1.000
19.530 79.000 1.000
19.540 82.000 1.000
19.550 85.000 1.000
19.560 86.000 1.000
19.570 85.000 1.000
19.580 85.000 1.000
19.590 82.000 1.000
19.600 76.000 1.000
19.610 92.000 1.000
19.620 81.000 1.000
19.630 77.000 1.000
19.640 98.000 1.000
19.650 97.000 1.000
19.660 77.000 1.000
19.670 74.000 1.000
19.680 79.000 1.000
19.690 78.000 1.000
19.700 80.000 1.000
19.710 75.000 1.000
19.720 79.000 1.000
19.730 86.000 1.000
19.740 79.000 1.000
19.750 89.000 1.000
19.760 88.000 1.000
19.770 85.000 1.000
19.780 82.000 1.000
19.790 86.000 1.000
19.800 74.000 1.000
19.810 83.000 1.000
19.820 81.000 1.000
19.830 71.000 1.000
19.840 81.000 1.000
19.850 76.000 1.000
19.860 80.000 1.000
19.870 78.000 1.000
19.880 82.000 1.000
19.890 86.000 1.000
19.900 85.000 1.000
19.910 87.000 1.000
19.920 79.000 1.000
19.930 79.000 1.000
19.940 82.000 1.000
19.950 81.000 1.000
19.960 85.000 1.000
19.970 75.000 1.000
19.980 65.000 1.000
19.990 73.000 1.000
20.000 85.000 1.000
20.010 81.000 1.000
20.020 77.000 1.000
20.030 72.000 1.000
20.040 78.000 1.000
20.050 71.000 1.000
20.060 89.000 1.000
20.070 82.000 1.000
20.080 86.000 1.000
20.090 82.000 1.000
20.100 78.000 1.000
20.110 74.000 1.000
20.120 80.000 1.000
20.130 83.000 1.000
20.140 78.000 1.000
20.150 92.000 1.000
20.160 92.000 1.000
20.170 88.000 1.000
20.180 89.000 1.000
20.190 86.000 1.000
20.200 86.000 1.000
20.210 88.000 1.000
20.220 85.000 1.000
20.230 83.000 1.000
20.240 82.000 1.000
20.250 69.000 1.000
20.260 79.000 1.000
20.270 84.000 1.000
20.280 90.000 1.000
20.290 86.000 1.000
20.300 82.000 1.000
20.310 82.000 1.000
20.320 87.000 1.000
20.330 83.000 1.000
20.340 94.000 1.000
20.350 93.000 1.000
20.360 91.000 1.000
20.370 85.000 1.000
20.380 84.000 1.000
20.390 88.000 1.000
20.400 95.000 1.000
20.410 81.000 1.000
20.420 83.000 1.000
20.430 89.000 1.000
20.440 103.000 1.000
20.450 97.000 1.000
20.460 102.000 1.000
20.470 106.000 1.000
20.480 89.000 1.000
20.490 92.000 1.000
20.500 93.000 1.000
20.510 106.000 1.000
20.520 99.000 1.000
20.530 108.000 1.000
20.540 110.000 1.000
20.550 103.000 1.000
20.560 102.000 1.000
20.570 101.000 1.000
20.580 104.000 1.000
20.590 107.000 1.000
20.600 95.000 1.000
20.610 103.000 1.000
20.620 103.000 1.000
20.630 106.000 1.000
20.640 118.000 1.000
20.650 109.000 1.000
20.660 121.000 1.000
20.670 114.000 1.000
20.680 115.000 1.000
20.690 128.000 1.000
20.700 126.000 1.000
20.710 113.000 1.000
20.720 104.000 1.000
20.730 108.000 1.000
20.740 122.000 1.000
20.750 130.000 1.000
20.760 128.000 1.000
20.770 134.000 1.000
20.780 119.000 1.000
20.790 118.000 1.000
20.800 129.000 1.000
20.810 125.000 1.000
20.820 131.000 1.000
20.830 129.000 1.000
20.840 128.000 1.000
20.850 135.000 1.000
20.860 131.000 1.000
20.870 115.000 1.000
20.880 110.000 1.000
20.890 120.000 1.000
20.900 130.000 1.000
20.910 111.000 1.000
20.920 122.000 1.000
20.930 139.000 1.000
20.940 124.000 1.000
20.950 135.000 1.000
20.960 133.000 1.000
20.970 123.000 1.000
20.980 134.000 1.000
20.990 129.000 1.000
21.000 119.000 1.000
21.010 135.000 1.000
21.020 159.000 1.000
21.030 148.000 1.000
21.040 134.000 1.000
21.050 136.000 1.000
21.060 125.000 1.000
21.070 128.000 1.000
21.080 131.000 1.000
21.090 122.000 1.000
21.100 113.000 1.000
21.110 117.000 1.000
21.120 119.000 1.000
21.130 106.000 1.000
21.140 123.000 1.000
21.150 115.000 1.000
21.160 120.000 1.000
21.170 118.000 1.000
21.180 122.000 1.000
21.190 113.000 1.000
21.200 112.000 1.000
21.210 107.000 1.000
21.220 110.000 1.000
21.230 116.000 1.000
21.240 113.000 1.000
21.250 116.000 1.000
21.260 113.000 1.000
21.270 120.000 1.000
21.280 118.000 1.000
21.290 121.000 1.000
21.300 126.000 1.000
21.310 133.000 1.000
21.320 122.000 1.000
21.330 125.000 1.000
21.340 123.000 1.000
21.350 145.000 1.000
21.360 145.000 1.000
21.370 161.000 1.000
21.380 150.000 1.000
21.390 125.000 1.000
21.400 134.000 1.000
21.410 149.000 1.000
21.420 154.000 1.000
21.430 145.000 1.000
21.440 140.000 1.000
21.450 141.000 1.000
21.460 124.000 1.000
21.470 123.000 1.000
21.480 121.000 1.000
21.490 120.000 1.000
21.500 122.000 1.000
21.510 112.000 1.000
21.520 148.000 1.000
21.530 136.000 1.000
21.540 128.000 1.000
21.550 132.000 1.000
21.560 137.000 1.000
21.570 124.000 1.000
21.580 125.000 1.000
21.590 143.000 1.000
21.600 119.000 1.000
21.610 123.000 1.000
21.620 134.000 1.000
21.630 137.000 1.000
21.640 136.000 1.000
21.650 127.000 1.000
21.660 132.000 1.000
21.670 131.000 1.000
21.680 135.000 1.000
21.690 133.000 1.000
21.700 126.000 1.000
21.710 148.000 1.000
21.720 153.000 1.000
21.730 163.000 1.000
21.740 158.000 1.000
21.750 175.000 1.000
21.760 176.000 1.000
21.770 170.000 1.000
21.780 184.000 1.000
21.790 199.000 1.000
21.800 203.000 1.000
21.810 200.000 1.000
21.820 200.000 1.000
21.830 217.000 1.000
21.840 226.000 1.000
21.850 231.000 1.000
21.860 237.000 1.000
21.870 242.000 1.000
21.880 258.000 1.000
21.890 237.000 1.000
21.900 230.000 1.000
21.910 237.000 1.000
21.920 260.000 1.000
21.930 250.000 1.000
21.940 219.000 1.000
21.950 232.000 1.000
21.960 229.000 1.000
21.970 232.000 1.000
21.980 234.000 1.000
21.990 212.000 1.000
22.000 195.000 1.000
22.010 196.000 1.000
22.020 186.000 1.000
22.030 194.000 1.000
22.040 183.000 1.000
22.050 173.000 1.000
22.060 142.000 1.000
22.070 132.000 1.000
22.080 129.000 1.000
22.090 112.000 1.000
22.100 122.000 1.000
22.110 138.000 1.000
22.120 114.000 1.000
22.130 111.000 1.000
22.140 110.000 1.000
22.150 117.000 1.000
22.160 118.000 1.000
22.170 125.000 1.000
22.180 113.000 1.000
22.190 102.000 1.000
22.200 114.000 1.000
22.210 113.000 1.000
22.220 115.000 1.000
22.230 114.000 1.000
22.240 99.000 1.000
22.250 116.000 1.000
22.260 114.000 1.000
22.270 106.000 1.000
22.280 124.000 1.000
22.290 111.000 1.000
22.300 107.000 1.000
22.310 110.000 1.000
22.320 114.000 1.000
22.330 111.000 1.000
22.340 110.000 1.000
22.350 102.000 1.000
22.360 115.000 1.000
22.370 127.000 1.000
22.380 123.000 1.000
22.390 123.000 1.000
22.400 111.000 1.000
22.410 121.000 1.000
22.420 120.000 1.000
22.430 135.000 1.000
22.440 121.000 1.000
22.450 124.000 1.000
22.460 139.000 1.000
22.470 135.000 1.000
22.480 122.000 1.000
22.490 126.000 1.000
22.500 133.000 1.000
22.510 139.000 1.000
22.520 127.000 1.000
22.530 127.000 1.000
22.540 126.000 1.000
22.550 146.000 1.000
22.560 156.000 1.000
22.570 136.000 1.000
22.580 122.000 1.000
22.590 141.000 1.000
22.600 146.000 1.000
22.610 148.000 1.000
22.620 163.000 1.000
22.630 152.000 1.000
22.640 153.000 1.000
22.650 149.000 1.000
22.660 145.000 1.000
22.670 147.000 1.000
22.680 151.000 1.000
22.690 156.000 1.000
22.700 147.000 1.000
22.710 147.000 1.000
22.720 155.000 1.000
22.730 149.000 1.000
22.740 150.000 1.000
22.750 134.000 1.000
22.760 133.000 1.000
22.770 145.000 1.000
22.780 157.000 1.000
22.790 143.000 1.000
22.800 134.000 1.000
22.810 142.000 1.000
22.820 170.000 1.000
22.830 170.000 1.000
22.840 131.000 1.000
22.850 127.000 1.000
22.860 140.000 1.000
22.870 150.000 1.000
22.880 142.000 1.000
22.890 140.000 1.000
22.900 148.000 1.000
22.910 146.000 1.000
22.920 133.000 1.000
22.930 119.000 1.000
22.940 123.000 1.000
22.950 139.000 1.000
22.960 149.000 1.000
22.970 137.000 1.000
22.980 131.000 1.000
22.990 125.000 1.000
23.000 132.000 1.000
23.010 126.000 1.000
23.020 121.000 1.000
23.030 127.000 1.000
23.040 138.000 1.000
23.050 144.000 1.000
23.060 148.000 1.000
23.070 140.000 1.000
23.080 136.000 1.000
23.090 131.000 1.000
23.100 124.000 1.000
23.110 122.000 1.000
23.120 131.000 1.000
23.130 127.000 1.000
23.140 133.000 1.000
23.150 138.000 1.000
23.160 138.000 1.000
23.170 131.000 1.000
23.180 150.000 1.000
23.190 150.000 1.000
23.200 143.000 1.000
23.210 131.000 1.000
23.220 142.000 1.000
23.230 150.000 1.000
23.240 152.000 1.000
23.250 153.000 1.000
23.260 167.000 1.000
23.270 179.000 1.000
23.280 178.000 1.000
23.290 186.000 1.000
23.300 186.000 1.000
23.310 183.000 1.000
23.320 178.000 1.000
23.330 166.000 1.000
23.340 172.000 1.000
23.350 164.000 1.000
23.360 160.000 1.000
23.370 174.000 1.000
23.380 173.000 1.000
23.390 155.000 1.000
23.400 168.000 1.000
23.410 167.000 1.000
23.420 178.000 1.000
23.430 156.000 1.000
23.440 149.000 1.000
23.450 164.000 1.000
23.460 159.000 1.000
23.470 145.000 1.000
23.480 128.000 1.000
23.490 129.000 1.000
23.500 136.000 1.000
23.510 116.000 1.000
23.520 121.000 1.000
23.530 121.000 1.000
23.540 118.000 1.000
23.550 116.000 1.000
23.560 128.000 1.000
23.570 115.000 1.000
23.580 103.000 1.000
23.590 115.000 1.000
23.600 115.000 1.000
23.610 106.000 1.000
23.620 104.000 1.000
23.630 99.000 1.000
23.640 111.000 1.000
23.650 96.000 1.000
23.660 113.000 1.000
23.670 113.000 1.000
23.680 102.000 1.000
23.690 103.000 1.000
23.700 103.000 1.000
23.710 117.000 1.000
23.720 119.000 1.000
23.730 116.000 1.000
23.740 110.000 1.000
23.750 104.000 1.000
23.760 113.000 1.000
23.770 101.000 1.000
23.780 104.000 1.000
23.790 116.000 1.000
23.800 122.000 1.000
23.810 133.000 1.000
23.820 136.000 1.000
23.830 126.000 1.000
23.840 117.000 1.000
23.850 114.000 1.000
23.860 126.000 1.000
23.870 134.000 1.000
23.880 127.000 1.000
23.890 139.000 1.000
23.900 142.000 1.000
23.910 160.000 1.000
23.920 161.000 1.000
23.930 175.000 1.000
23.940 194.000 1.000
23.950 195.000 1.000
23.960 199.000 1.000
23.970 218.000 1.000
23.980 237.000 1.000
23.990 246.000 1.000
24.000 248.000 1.000
24.010 239.000 1.000
24.020 235.000 1.000
24.030 244.000 1.000
24.040 225.000 1.000
24.050 219.000 1.000
24.060 226.000 1.000
24.070 231.000 1.000
24.080 203.000 1.000
24.090 217.000 1.000
24.100 193.000 1.000
24.110 170.000 1.000
24.120 176.000 1.000
24.130 167.000 1.000
24.140 146.000 1.000
24.150 142.000 1.000
24.160 133.000 1.000
24.170 121.000 1.000
24.180 121.000 1.000
24.190 145.000 1.000
24.200 123.000 1.000
24.210 101.000 1.000
24.220 110.000 1.000
24.230 108.000 1.000
24.240 99.000 1.000
24.250 112.000 1.000
24.260 118.000 1.000
24.270 109.000 1.000
24.280 121.000 1.000
24.290 111.000 1.000
24.300 112.000 1.000
24.310 119.000 1.000
24.320 105.000 1.000
24.330 108.000 1.000
24.340 121.000 1.000
24.350 108.000 1.000
24.360 96.000 1.000
24.370 112.000 1.000
24.380 116.000 1.000
24.390 124.000 1.000
24.400 120.000 1.000
24.410 115.000 1.000
24.420 121.000 1.000
24.430 114.000 1.000
24.440 113.000 1.000
24.450 110.000 1.000
24.460 110.000 1.000
24.470 95.000 1.000
24.480 101.000 1.000
24.490 118.000 1.000
24.500 114.000 1.000
24.510 89.000 1.000
24.520 109.000 1.000
24.530 107.000 1.000
24.540 90.000 1.000
24.550 102.000 1.000
24.560 115.000 1.000
24.570 115.000 1.000
24.580 111.000 1.000
24.590 114.000 1.000
24.600 112.000 1.000
24.610 104.000 1.000
24.620 108.000 1.000
24.630 103.000 1.000
24.640 116.000 1.000
24.650 125.000 1.000
24.660 115.000 1.000
24.670 116.000 1.000
24.680 101.000 1.000
24.690 117.000 1.000
24.700 112.000 1.000
24.710 117.000 1.000
24.720 99.000 1.000
24.730 103.000 1.000
24.740 101.000 1.000
24.750 100.000 1.000
24.760 111.000 1.000
24.770 111.000 1.000
24.780 109.000 1.000
24.790 112.000 1.000
24.800 106.000 1.000
24.810 115.000 1.000
24.820 111.000 1.000
24.830 99.000 1.000
24.840 112.000 1.000
24.850 116.000 1.000
24.860 107.000 1.000
24.870 104.000 1.000
24.880 115.000 1.000
24.890 105.000 1.000
24.900 107.000 1.000
24.910 120.000 1.000
24.920 111.000 1.000
24.930 110.000 1.000
24.940 122.000 1.000
24.950 132.000 1.000
24.960 113.000 1.000
24.970 113.000 1.000
24.980 113.000 1.000
24.990 128.000 1.000
25.000 109.000 1.000
25.010 118.000 1.000
25.020 108.000 1.000
25.030 107.000 1.000
25.040 106.000 1.000
25.050 115.000 1.000
25.060 108.000 1.000
25.070 111.000 1.000
25.080 123.000 1.000
25.090 120.000 1.000
25.100 121.000 1.000
25.110 125.000 1.000
25.120 110.000 1.000
25.130 118.000 1.000
25.140 126.000 1.000
25.150 125.000 1.000
25.160 124.000 1.000
25.170 116.000 1.000
25.180 121.000 1.000
25.190 146.000 1.000
25.200 145.000 1.000
25.210 126.000 1.000
25.220 138.000 1.000
25.230 130.000 1.000
25.240 124.000 1.000
25.250 138.000 1.000
25.260 133.000 1.000
25.270 133.000 1.000
25.280 129.000 1.000
25.290 119.000 1.000
25.300 114.000 1.000
25.310 130.000 1.000
25.320 147.000 1.000
25.330 131.000 1.000
25.340 144.000 1.000
25.350 147.000 1.000
25.360 125.000 1.000
25.370 122.000 1.000
25.380 140.000 1.000
25.390 130.000 1.000
25.400 143.000 1.000
25.410 129.000 1.000
25.420 124.000 1.000
25.430 131.000 1.000
25.440 125.000 1.000
25.450 137.000 1.000
25.460 134.000 1.000
25.470 126.000 1.000
25.480 119.000 1.000
25.490 107.000 1.000
25.500 105.000 1.000
25.510 122.000 1.000
25.520 121.000 1.000
25.530 106.000 1.000
25.540 107.000 1.000
25.550 100.000 1.000
25.560 105.000 1.000
25.570 110.000 1.000
25.580 105.000 1.000
25.590 105.000 1.000
25.600 104.000 1.000
25.610 118.000 1.000
25.620 112.000 1.000
25.630 101.000 1.000
25.640 100.000 1.000
25.650 109.000 1.000
25.660 104.000 1.000
25.670 103.000 1.000
25.680 96.000 1.000
25.690 92.000 1.000
25.700 106.000 1.000
25.710 106.000 1.000
25.720 104.000 1.000
25.730 117.000 1.000
25.740 103.000 1.000
25.750 103.000 1.000
25.760 100.000 1.000
25.770 119.000 1.000
25.780 98.000 1.000
25.790 125.000 1.000
25.800 127.000 1.000
25.810 107.000 1.000
25.820 102.000 1.000
25.830 102.000 1.000
25.840 106.000 1.000
25.850 103.000 1.000
25.860 92.000 1.000
25.870 93.000 1.000
25.880 107.000 1.000
25.890 99.000 1.000
25.900 90.000 1.000
25.910 104.000 1.000
25.920 92.000 1.000
25.930 89.000 1.000
25.940 98.000 1.000
25.950 102.000 1.000
25.960 98.000 1.000
25.970 113.000 1.000
25.980 110.000 1.000
25.990 113.000 1.000
26.000 95.000 1.000
26.010 103.000 1.000
26.020 114.000 1.000
26.030 110.000 1.000
26.040 102.000 1.000
26.050 115.000 1.000
26.060 114.000 1.000
26.070 117.000 1.000
26.080 119.000 1.000
26.090 113.000 1.000
26.100 101.000 1.000
26.110 110.000 1.000
26.120 110.000 1.000
26.130 125.000 1.000
26.140 127.000 1.000
26.150 129.000 1.000
26.160 140.000 1.000
26.170 114.000 1.000
26.180 128.000 1.000
26.190 141.000 1.000
26.200 130.000 1.000
26.210 139.000 1.000
26.220 164.000 1.000
26.230 173.000 1.000
26.240 175.000 1.000
26.250 174.000 1.000
26.260 188.000 1.000
26.270 190.000 1.000
26.280 205.000 1.000
26.290 214.000 1.000
26.300 193.000 1.000
26.310 211.000 1.000
26.320 221.000 1.000
26.330 213.000 1.000
26.340 232.000 1.000
26.350 262.000 1.000
26.360 250.000 1.000
26.370 244.000 1.000
26.380 224.000 1.000
26.390 228.000 1.000
26.400 221.000 1.000
26.410 210.000 1.000
26.420 213.000 1.000
26.430 196.000 1.000
26.440 210.000 1.000
26.450 204.000 1.000
26.460 196.000 1.000
26.470 186.000 1.000
26.480 175.000 1.000
26.490 184.000 1.000
26.500 170.000 1.000
26.510 166.000 1.000
26.520 167.000 1.000
26.530 141.000 1.000
26.540 147.000 1.000
26.550 164.000 1.000
26.560 165.000 1.000
26.570 149.000 1.000
26.580 158.000 1.000
26.590 140.000 1.000
26.600 125.000 1.000
26.610 139.000 1.000
26.620 129.000 1.000
26.630 120.000 1.000
26.640 115.000 1.000
26.650 126.000 1.000
26.660 124.000 1.000
26.670 131.000 1.000
26.680 124.000 1.000
26.690 132.000 1.000
26.700 122.000 1.000
26.710 129.000 1.000
26.720 134.000 1.000
26.730 127.000 1.000
26.740 122.000 1.000
26.750 121.000 1.000
26.760 129.000 1.000
26.770 127.000 1.000
26.780 123.000 1.000
26.790 121.000 1.000
26.800 123.000 1.000
26.810 123.000 1.000
26.820 135.000 1.000
26.830 131.000 1.000
26.840 119.000 1.000
26.850 127.000 1.000
26.860 123.000 1.000
26.870 121.000 1.000
26.880 134.000 1.000
26.890 122.000 1.000
26.900 119.000 1.000
26.910 112.000 1.000
26.920 121.000 1.000
26.930 132.000 1.000
26.940 122.000 1.000
26.950 116.000 1.000
26.960 118.000 1.000
26.970 124.000 1.000
26.980 118.000 1.000
26.990 107.000 1.000
27.000 133.000 1.000
27.010 134.000 1.000
27.020 123.000 1.000
27.030 114.000 1.000
27.040 112.000 1.000
27.050 133.000 1.000
27.060 130.000 1.000
27.070 131.000 1.000
27.080 119.000 1.000
27.090 118.000 1.000
27.100 137.000 1.000
27.110 135.000 1.000
27.120 131.000 1.000
27.130 143.000 1.000
27.140 137.000 1.000
27.150 131.000 1.000
27.160 124.000 1.000
27.170 130.000 1.000
27.180 124.000 1.000
27.190 118.000 1.000
27.200 115.000 1.000
27.210 121.000 1.000
27.220 129.000 1.000
27.230 133.000 1.000
27.240 137.000 1.000
27.250 125.000 1.000
27.260 140.000 1.000
27.270 116.000 1.000
27.280 115.000 1.000
27.290 114.000 1.000
27.300 126.000 1.000
27.310 108.000 1.000
27.320 108.000 1.000
27.330 120.000 1.000
27.340 119.000 1.000
27.350 127.000 1.000
27.360 122.000 1.000
27.370 130.000 1.000
27.380 129.000 1.000
27.390 116.000 1.000
27.400 120.000 1.000
27.410 120.000 1.000
27.420 121.000 1.000
27.430 117.000 1.000
27.440 121.000 1.000
27.450 118.000 1.000
27.460 116.000 1.000
27.470 129.000 1.000
27.480 116.000 1.000
27.490 116.000 1.000
27.500 122.000 1.000
27.510 117.000 1.000
27.520 123.000 1.000
27.530 119.000 1.000
27.540 130.000 1.000
27.550 127.000 1.000
27.560 136.000 1.000
27.570 129.000 1.000
27.580 116.000 1.000
27.590 115.000 1.000
27.600 117.000 1.000
27.610 123.000 1.000
27.620 122.000 1.000
27.630 106.000 1.000
27.640 118.000 1.000
27.650 122.000 1.000
27.660 118.000 1.000
27.670 107.000 1.000
27.680 130.000 1.000
27.690 117.000 1.000
27.700 115.000 1.000
27.710 101.000 1.000
27.720 104.000 1.000
27.730 115.000 1.000
27.740 120.000 1.000
27.750 114.000 1.000
27.760 113.000 1.000
27.770 118.000 1.000
27.780 116.000 1.000
27.790 113.000 1.000
27.800 106.000 1.000
27.810 102.000 1.000
27.820 96.000 1.000
27.830 102.000 1.000
27.840 102.000 1.000
27.850 99.000 1.000
27.860 109.000 1.000
27.870 100.000 1.000
27.880 99.000 1.000
27.890 113.000 1.000
27.900 104.000 1.000
27.910 102.000 1.000
27.920 109.000 1.000
27.930 103.000 1.000
27.940 102.000 1.000
27.950 92.000 1.000
27.960 95.000 1.000
27.970 100.000 1.000
27.980 108.000 1.000
27.990 105.000 1.000
28.000 104.000 1.000
28.010 103.000 1.000
28.020 95.000 1.000
28.030 92.000 1.000
28.040 98.000 1.000
28.050 94.000 1.000
28.060 78.000 1.000
28.070 85.000 1.000
28.080 106.000 1.000
28.090 106.000 1.000
28.100 89.000 1.000
28.110 96.000 1.000
28.120 93.000 1.000
28.130 111.000 1.000
28.140 85.000 1.000
28.150 90.000 1.000
28.160 99.000 1.000
28.170 90.000 1.000
28.180 109.000 1.000
28.190 101.000 1.000
28.200 101.000 1.000
28.210 110.000 1.000
28.220 115.000 1.000
28.230 98.000 1.000
28.240 106.000 1.000
28.250 105.000 1.000
28.260 108.000 1.000
28.270 105.000 1.000
28.280 100.000 1.000
28.290 112.000 1.000
28.300 99.000 1.000
28.310 100.000 1.000
28.320 105.000 1.000
28.330 107.000 1.000
28.340 96.000 1.000
28.350 96.000 1.000
28.360 100.000 1.000
28.370 100.000 1.000
28.380 114.000 1.000
28.390 118.000 1.000
28.400 110.000 1.000
28.410 106.000 1.000
28.420 104.000 1.000
28.430 111.000 1.000
28.440 109.000 1.000
28.450 106.000 1.000
28.460 102.000 1.000
28.470 98.000 1.000
28.480 97.000 1.000
28.490 105.000 1.000
28.500 100.000 1.000
28.510 95.000 1.000
28.520 99.000 1.000
28.530 98.000 1.000
28.540 112.000 1.000
28.550 92.000 1.000
28.560 103.000 1.000
28.570 94.000 1.000
28.580 96.000 1.000
28.590 89.000 1.000
28.600 97.000 1.000
28.610 81.000 1.000
28.620 82.000 1.000
28.630 100.000 1.000
28.640 103.000 1.000
28.650 96.000 1.000
28.660 94.000 1.000
28.670 100.000 1.000
28.680 100.000 1.000
28.690 87.000 1.000
28.700 88.000 1.000
28.710 97.000 1.000
28.720 94.000 1.000
28.730 94.000 1.000
28.740 101.000 1.000
28.750 99.000 1.000
28.760 111.000 1.000
28.770 100.000 1.000
28.780 95.000 1.000
28.790 93.000 1.000
28.800 97.000 1.000
28.810 95.000 1.000
28.820 96.000 1.000
28.830 102.000 1.000
28.840 96.000 1.000
28.850 104.000 1.000
28.860 91.000 1.000
28.870 97.000 1.000
28.880 100.000 1.000
28.890 91.000 1.000
28.900 97.000 1.000
28.910 93.000 1.000
28.920 101.000 1.000
28.930 110.000 1.000
28.940 104.000 1.000
28.950 107.000 1.000
28.960 100.000 1.000
28.970 99.000 1.000
28.980 109.000 1.000
28.990 104.000 1.000
29.000 100.000 1.000
29.010 112.000 1.000
29.020 106.000 1.000
29.030 106.000 1.000
29.040 103.000 1.000
29.050 97.000 1.000
29.060 100.000 1.000
29.070 100.000 1.000
29.080 101.000 1.000
29.090 89.000 1.000
29.100 97.000 1.000
29.110 101.000 1.000
29.120 99.000 1.000
29.130 96.000 1.000
29.140 94.000 1.000
29.150 105.000 1.000
29.160 94.000 1.000
29.170 96.000 1.000
29.180 105.000 1.000
29.190 82.000 1.000
29.200 89.000 1.000
29.210 95.000 1.000
29.220 83.000 1.000
29.230 96.000 1.000
29.240 104.000 1.000
29.250 104.000 1.000
29.260 102.000 1.000
29.270 96.000 1.000
29.280 102.000 1.000
29.290 102.000 1.000
29.300 101.000 1.000
29.310 85.000 1.000
29.320 89.000 1.000
29.330 101.000 1.000
29.340 109.000 1.000
29.350 106.000 1.000
29.360 96.000 1.000
29.370 92.000 1.000
29.380 94.000 1.000
29.390 103.000 1.000
29.400 98.000 1.000
29.410 103.000 1.000
29.420 106.000 1.000
29.430 98.000 1.000
29.440 83.000 1.000
29.450 97.000 1.000
29.460 113.000 1.000
29.470 114.000 1.000
29.480 95.000 1.000
29.490 90.000 1.000
29.500 92.000 1.000
29.510 90.000 1.000
29.520 95.000 1.000
29.530 100.000 1.000
29.540 95.000 1.000
29.550 83.000 1.000
29.560 101.000 1.000
29.570 96.000 1.000
29.580 96.000 1.000
29.590 94.000 1.000
29.600 102.000 1.000
29.610 100.000 1.000
29.620 94.000 1.000
29.630 91.000 1.000
29.640 92.000 1.000
29.650 108.000 1.000
29.660 108.000 1.000
29.670 104.000 1.000
29.680 100.000 1.000
29.690 112.000 1.000
29.700 109.000 1.000
29.710 88.000 1.000
29.720 89.000 1.000
29.730 98.000 1.000
29.740 112.000 1.000
29.750 108.000 1.000
29.760 102.000 1.000
29.770 93.000 1.000
29.780 103.000 1.000
29.790 109.000 1.000
29.800 106.000 1.000
29.810 96.000 1.000
29.820 91.000 1.000
29.830 93.000 1.000
29.840 101.000 1.000
29.850 93.000 1.000
29.860 85.000 1.000
29.870 91.000 1.000
29.880 97.000 1.000
29.890 87.000 1.000
29.900 82.000 1.000
29.910 86.000 1.000
29.920 81.000 1.000
29.930 87.000 1.000
29.940 97.000 1.000
29.950 98.000 1.000
29.960 95.000 1.000
29.970 103.000 1.000
29.980 100.000 1.000
29.990 103.000 1.000
30.000 102.000 1.000
30.010 108.000 1.000
30.020 101.000 1.000
30.030 92.000 1.000
30.040 98.000 1.000
30.050 102.000 1.000
30.060 99.000 1.000
30.070 95.000 1.000
30.080 97.000 1.000
30.090 94.000 1.000
30.100 92.000 1.000
30.110 94.000 1.000
30.120 90.000 1.000
30.130 96.000 1.000
30.140 99.000 1.000
30.150 97.000 1.000
30.160 94.000 1.000
30.170 93.000 1.000
30.180 87.000 1.000
30.190 94.000 1.000
30.200 105.000 1.000
30.210 103.000 1.000
30.220 103.000 1.000
30.230 90.000 1.000
30.240 91.000 1.000
30.250 99.000 1.000
30.260 90.000 1.000
30.270 90.000 1.000
30.280 94.000 1.000
30.290 98.000 1.000
30.300 103.000 1.000
30.310 101.000 1.000
30.320 106.000 1.000
30.330 92.000 1.000
30.340 89.000 1.000
30.350 99.000 1.000
30.360 100.000 1.000
30.370 89.000 1.000
30.380 95.000 1.000
30.390 85.000 1.000
30.400 91.000 1.000
30.410 105.000 1.000
30.420 83.000 1.000
30.430 98.000 1.000
30.440 95.000 1.000
30.450 105.000 1.000
30.460 103.000 1.000
30.470 102.000 1.000
30.480 92.000 1.000
30.490 91.000 1.000
30.500 110.000 1.000
30.510 98.000 1.000
30.520 98.000 1.000
30.530 102.000 1.000
30.540 111.000 1.000
30.550 98.000 1.000
30.560 86.000 1.000
30.570 94.000 1.000
30.580 106.000 1.000
30.590 97.000 1.000
30.600 100.000 1.000
30.610 101.000 1.000
30.620 99.000 1.000
30.630 114.000 1.000
30.640 109.000 1.000
30.650 97.000 1.000
30.660 98.000 1.000
30.670 110.000 1.000
30.680 92.000 1.000
30.690 90.000 1.000
30.700 102.000 1.000
30.710 102.000 1.000
30.720 96.000 1.000
30.730 88.000 1.000
30.740 85.000 1.000
30.750 88.000 1.000
30.760 83.000 1.000
30.770 87.000 1.000
30.780 107.000 1.000
30.790 103.000 1.000
30.800 87.000 1.000
30.810 94.000 1.000
30.820 98.000 1.000
30.830 97.000 1.000
30.840 92.000 1.000
30.850 90.000 1.000
30.860 102.000 1.000
30.870 99.000 1.000
30.880 108.000 1.000
30.890 98.000 1.000
30.900 100.000 1.000
30.910 97.000 1.000
30.920 98.000 1.000
30.930 96.000 1.000
30.940 100.000 1.000
30.950 96.000 1.000
30.960 107.000 1.000
30.970 101.000 1.000
30.980 90.000 1.000
30.990 92.000 1.000
31.000 100.000 1.000
31.010 99.000 1.000
31.020 91.000 1.000
31.030 92.000 1.000
31.040 88.000 1.000
31.050 100.000 1.000
31.060 98.000 1.000
31.070 93.000 1.000
31.080 96.000 1.000
31.090 95.000 1.000
31.100 99.000 1.000
31.110 96.000 1.000
31.120 101.000 1.000
31.130 98.000 1.000
31.140 93.000 1.000
31.150 96.000 1.000
31.160 88.000 1.000
31.170 86.000 1.000
31.180 95.000 1.000
31.190 98.000 1.000
31.200 99.000 1.000
31.210 105.000 1.000
31.220 106.000 1.000
31.230 95.000 1.000
31.240 77.000 1.000
31.250 80.000 1.000
31.260 91.000 1.000
31.270 88.000 1.000
31.280 96.000 1.000
31.290 104.000 1.000
31.300 89.000 1.000
31.310 92.000 1.000
31.320 100.000 1.000
31.330 85.000 1.000
31.340 94.000 1.000
31.350 101.000 1.000
31.360 102.000 1.000
31.370 107.000 1.000
31.380 103.000 1.000
31.390 95.000 1.000
31.400 98.000 1.000
31.410 100.000 1.000
31.420 91.000 1.000
31.430 85.000 1.000
31.440 89.000 1.000
31.450 107.000 1.000
31.460 92.000 1.000
31.470 92.000 1.000
31.480 95.000 1.000
31.490 82.000 1.000
31.500 86.000 1.000
31.510 99.000 1.000
31.520 92.000 1.000
31.530 99.000 1.000
31.540 95.000 1.000
31.550 100.000 1.000
31.560 98.000 1.000
31.570 95.000 1.000
31.580 88.000 1.000
31.590 95.000 1.000
31.600 92.000 1.000
31.610 94.000 1.000
31.620 108.000 1.000
31.630 100.000 1.000
31.640 103.000 1.000
31.650 104.000 1.000
31.660 114.000 1.000
31.670 103.000 1.000
31.680 98.000 1.000
31.690 106.000 1.000
31.700 107.000 1.000
31.710 95.000 1.000
31.720 101.000 1.000
31.730 105.000 1.000
31.740 81.000 1.000
31.750 89.000 1.000
31.760 96.000 1.000
31.770 107.000 1.000
31.780 103.000 1.000
31.790 102.000 1.000
31.800 114.000 1.000
31.810 109.000 1.000
31.820 93.000 1.000
31.830 104.000 1.000
31.840 111.000 1.000
31.850 104.000 1.000
31.860 95.000 1.000
31.870 98.000 1.000
31.880 94.000 1.000
31.890 97.000 1.000
31.900 95.000 1.000
31.910 108.000 1.000
31.920 102.000 1.000
31.930 97.000 1.000
31.940 110.000 1.000
31.950 110.000 1.000
31.960 105.000 1.000
31.970 110.000 1.000
31.980 105.000 1.000
31.990 99.000 1.000
32.000 87.000 1.000
32.010 89.000 1.000
32.020 87.000 1.000
32.030 89.000 1.000
32.040 101.000 1.000
32.050 94.000 1.000
32.060 89.000 1.000
32.070 104.000 1.000
32.080 102.000 1.000
32.090 95.000 1.000
32.100 109.000 1.000
32.110 108.000 1.000
32.120 105.000 1.000
32.130 110.000 1.000
32.140 110.000 1.000
32.150 109.000 1.000
32.160 103.000 1.000
32.170 130.000 1.000
32.180 131.000 1.000
32.190 112.000 1.000
32.200 115.000 1.000
32.210 117.000 1.000
32.220 131.000 1.000
32.230 117.000 1.000
32.240 115.000 1.000
32.250 125.000 1.000
32.260 119.000 1.000
32.270 118.000 1.000
32.280 118.000 1.000
32.290 123.000 1.000
32.300 119.000 1.000
32.310 125.000 1.000
32.320 105.000 1.000
32.330 116.000 1.000
32.340 109.000 1.000
32.350 106.000 1.000
32.360 130.000 1.000
32.370 124.000 1.000
32.380 102.000 1.000
32.390 95.000 1.000
32.400 95.000 1.000
32.410 118.000 1.000
32.420 117.000 1.000
32.430 100.000 1.000
32.440 106.000 1.000
32.450 113.000 1.000
32.460 106.000 1.000
32.470 97.000 1.000
32.480 100.000 1.000
32.490 103.000 1.000
32.500 106.000 1.000
32.510 112.000 1.000
32.520 107.000 1.000
32.530 108.000 1.000
32.540 105.000 1.000
32.550 95.000 1.000
32.560 109.000 1.000
32.570 117.000 1.000
32.580 112.000 1.000
32.590 118.000 1.000
32.600 106.000 1.000
32.610 95.000 1.000
32.620 103.000 1.000
32.630 108.000 1.000
32.640 96.000 1.000
32.650 101.000 1.000
32.660 107.000 1.000
32.670 111.000 1.000
32.680 106.000 1.000
32.690 105.000 1.000
32.700 113.000 1.000
32.710 104.000 1.000
32.720 89.000 1.000
32.730 100.000 1.000
32.740 109.000 1.000
32.750 104.000 1.000
32.760 100.000 1.000
32.770 90.000 1.000
32.780 97.000 1.000
32.790 110.000 1.000
32.800 115.000 1.000
32.810 114.000 1.000
32.820 112.000 1.000
32.830 112.000 1.000
32.840 102.000 1.000
32.850 97.000 1.000
32.860 93.000 1.000
32.870 103.000 1.000
32.880 97.000 1.000
32.890 96.000 1.000
32.900 99.000 1.000
32.910 91.000 1.000
32.920 96.000 1.000
32.930 112.000 1.000
32.940 95.000 1.000
32.950 95.000 1.000
32.960 97.000 1.000
32.970 98.000 1.000
32.980 100.000 1.000
32.990 89.000 1.000
33.000 107.000 1.000
33.010 102.000 1.000
33.020 111.000 1.000
33.030 114.000 1.000
33.040 112.000 1.000
33.050 97.000 1.000
33.060 99.000 1.000
33.070 107.000 1.000
33.080 108.000 1.000
33.090 100.000 1.000
33.100 101.000 1.000
33.110 111.000 1.000
33.120 105.000 1.000
33.130 104.000 1.000
33.140 100.000 1.000
33.150 105.000 1.000
33.160 107.000 1.000
33.170 105.000 1.000
33.180 108.000 1.000
33.190 94.000 1.000
33.200 97.000 1.000
33.210 106.000 1.000
33.220 116.000 1.000
33.230 114.000 1.000
33.240 113.000 1.000
33.250 112.000 1.000
33.260 106.000 1.000
33.270 106.000 1.000
33.280 117.000 1.000
33.290 110.000 1.000
33.300 103.000 1.000
33.310 106.000 1.000
33.320 111.000 1.000
33.330 90.000 1.000
33.340 102.000 1.000
33.350 112.000 1.000
33.360 105.000 1.000
33.370 107.000 1.000
33.380 97.000 1.000
33.390 109.000 1.000
33.400 120.000 1.000
33.410 105.000 1.000
33.420 91.000 1.000
33.430 104.000 1.000
33.440 105.000 1.000
33.450 112.000 1.000
33.460 108.000 1.000
33.470 99.000 1.000
33.480 90.000 1.000
33.490 97.000 1.000
33.500 95.000 1.000
33.510 89.000 1.000
33.520 98.000 1.000
33.530 97.000 1.000
33.540 91.000 1.000
33.550 89.000 1.000
33.560 100.000 1.000
33.570 108.000 1.000
33.580 107.000 1.000
33.590 109.000 1.000
33.600 108.000 1.000
33.610 107.000 1.000
33.620 98.000 1.000
33.630 83.000 1.000
33.640 88.000 1.000
33.650 95.000 1.000
33.660 93.000 1.000
33.670 103.000 1.000
33.680 112.000 1.000
33.690 105.000 1.000
33.700 101.000 1.000
33.710 94.000 1.000
33.720 105.000 1.000
33.730 103.000 1.000
33.740 105.000 1.000
33.750 100.000 1.000
33.760 102.000 1.000
33.770 94.000 1.000
33.780 99.000 1.000
33.790 108.000 1.000
33.800 116.000 1.000
33.810 111.000 1.000
33.820 98.000 1.000
33.830 100.000 1.000
33.840 106.000 1.000
33.850 106.000 1.000
33.860 115.000 1.000
33.870 99.000 1.000
33.880 95.000 1.000
33.890 110.000 1.000
33.900 120.000 1.000
33.910 116.000 1.000
33.920 113.000 1.000
33.930 123.000 1.000
33.940 124.000 1.000
33.950 121.000 1.000
33.960 126.000 1.000
33.970 135.000 1.000
33.980 140.000 1.000
33.990 138.000 1.000
34.000 135.000 1.000
34.010 129.000 1.000
34.020 148.000 1.000
34.030 121.000 1.000
34.040 117.000 1.000
34.050 136.000 1.000
34.060 154.000 1.000
34.070 137.000 1.000
34.080 149.000 1.000
34.090 138.000 1.000
34.100 131.000 1.000
34.110 134.000 1.000
34.120 133.000 1.000
34.130 118.000 1.000
34.140 116.000 1.000
34.150 124.000 1.000
34.160 122.000 1.000
34.170 121.000 1.000
34.180 123.000 1.000
34.190 132.000 1.000
34.200 112.000 1.000
34.210 110.000 1.000
34.220 119.000 1.000
34.230 104.000 1.000
34.240 114.000 1.000
34.250 116.000 1.000
34.260 110.000 1.000
34.270 119.000 1.000
34.280 127.000 1.000
34.290 103.000 1.000
34.300 109.000 1.000
34.310 113.000 1.000
34.320 117.000 1.000
34.330 116.000 1.000
34.340 109.000 1.000
34.350 111.000 1.000
34.360 110.000 1.000
34.370 117.000 1.000
34.380 113.000 1.000
34.390 107.000 1.000
34.400 99.000 1.000
34.410 104.000 1.000
34.420 120.000 1.000
34.430 104.000 1.000
34.440 108.000 1.000
34.450 113.000 1.000
34.460 109.000 1.000
34.470 101.000 1.000
34.480 111.000 1.000
34.490 112.000 1.000
34.500 112.000 1.000
34.510 113.000 1.000
34.520 108.000 1.000
34.530 117.000 1.000
34.540 110.000 1.000
34.550 102.000 1.000
34.560 113.000 1.000
34.570 108.000 1.000
34.580 110.000 1.000
34.590 106.000 1.000
34.600 99.000 1.000
34.610 94.000 1.000
34.620 100.000 1.000
34.630 106.000 1.000
34.640 96.000 1.000
34.650 103.000 1.000
34.660 110.000 1.000
34.670 103.000 1.000
34.680 116.000 1.000
34.690 116.000 1.000
34.700 105.000 1.000
34.710 97.000 1.000
34.720 96.000 1.000
34.730 97.000 1.000
34.740 102.000 1.000
34.750 112.000 1.000
34.760 97.000 1.000
34.770 105.000 1.000
34.780 105.000 1.000
34.790 104.000 1.000
34.800 112.000 1.000
34.810 110.000 1.000
34.820 106.000 1.000
34.830 108.000 1.000
34.840 106.000 1.000
34.850 105.000 1.000
34.860 103.000 1.000
34.870 103.000 1.000
34.880 116.000 1.000
34.890 114.000 1.000
34.900 110.000 1.000
34.910 93.000 1.000
34.920 109.000 1.000
34.930 116.000 1.000
34.940 105.000 1.000
34.950 111.000 1.000
34.960 108.000 1.000
34.970 105.000 1.000
34.980 113.000 1.000
34.990 109.000 1.000
35.000 118.000 1.000
35.010 108.000 1.000
35.020 100.000 1.000
35.030 99.000 1.000
35.040 107.000 1.000
35.050 96.000 1.000
35.060 99.000 1.000
35.070 100.000 1.000
35.080 115.000 1.000
35.090 99.000 1.000
35.100 110.000 1.000
35.110 120.000 1.000
35.120 127.000 1.000
35.130 109.000 1.000
35.140 106.000 1.000
35.150 107.000 1.000
35.160 116.000 1.000
35.170 109.000 1.000
35.180 105.000 1.000
35.190 104.000 1.000
35.200 104.000 1.000
35.210 102.000 1.000
35.220 111.000 1.000
35.230 114.000 1.000
35.240 102.000 1.000
35.250 109.000 1.000
35.260 123.000 1.000
35.270 129.000 1.000
35.280 136.000 1.000
35.290 109.000 1.000
35.300 105.000 1.000
35.310 115.000 1.000
35.320 101.000 1.000
35.330 108.000 1.000
35.340 113.000 1.000
35.350 116.000 1.000
35.360 96.000 1.000
35.370 100.000 1.000
35.380 106.000 1.000
35.390 100.000 1.000
35.400 97.000 1.000
35.410 115.000 1.000
35.420 97.000 1.000
35.430 86.000 1.000
35.440 108.000 1.000
35.450 110.000 1.000
35.460 101.000 1.000
35.470 103.000 1.000
35.480 104.000 1.000
35.490 103.000 1.000
35.500 98.000 1.000
35.510 100.000 1.000
35.520 104.000 1.000
35.530 107.000 1.000
35.540 110.000 1.000
35.550 122.000 1.000
35.560 102.000 1.000
35.570 99.000 1.000
35.580 112.000 1.000
35.590 116.000 1.000
35.600 110.000 1.000
35.610 100.000 1.000
35.620 100.000 1.000
35.630 108.000 1.000
35.640 107.000 1.000
35.650 98.000 1.000
35.660 104.000 1.000
35.670 104.000 1.000
35.680 109.000 1.000
35.690 114.000 1.000
35.700 96.000 1.000
35.710 108.000 1.000
35.720 102.000 1.000
35.730 96.000 1.000
35.740 92.000 1.000
35.750 99.000 1.000
35.760 92.000 1.000
35.770 109.000 1.000
35.780 111.000 1.000
35.790 107.000 1.000
35.800 98.000 1.000
35.810 106.000 1.000
35.820 94.000 1.000
35.830 91.000 1.000
35.840 107.000 1.000
35.850 110.000 1.000
35.860 112.000 1.000
35.870 94.000 1.000
35.880 97.000 1.000
35.890 96.000 1.000
35.900 100.000 1.000
35.910 105.000 1.000
35.920 114.000 1.000
35.930 101.000 1.000
35.940 106.000 1.000
35.950 104.000 1.000
35.960 116.000 1.000
35.970 113.000 1.000
35.980 111.000 1.000
35.990 112.000 1.000
36.000 108.000 1.000
36.010 112.000 1.000
36.020 110.000 1.000
36.030 104.000 1.000
36.040 103.000 1.000
36.050 116.000 1.000
36.060 114.000 1.000
36.070 106.000 1.000
36.080 103.000 1.000
36.090 108.000 1.000
36.100 118.000 1.000
36.110 120.000 1.000
36.120 115.000 1.000
36.130 115.000 1.000
36.140 117.000 1.000
36.150 109.000 1.000
36.160 105.000 1.000
36.170 109.000 1.000
36.180 114.000 1.000
36.190 109.000 1.000
36.200 107.000 1.000
36.210 105.000 1.000
36.220 119.000 1.000
36.230 111.000 1.000
36.240 107.000 1.000
36.250 103.000 1.000
36.260 104.000 1.000
36.270 112.000 1.000
36.280 127.000 1.000
36.290 134.000 1.000
36.300 111.000 1.000
36.310 102.000 1.000
36.320 105.000 1.000
36.330 114.000 1.000
36.340 110.000 1.000
36.350 97.000 1.000
36.360 95.000 1.000
36.370 102.000 1.000
36.380 106.000 1.000
36.390 117.000 1.000
36.400 107.000 1.000
36.410 93.000 1.000
36.420 109.000 1.000
36.430 112.000 1.000
36.440 103.000 1.000
36.450 109.000 1.000
36.460 103.000 1.000
36.470 98.000 1.000
36.480 95.000 1.000
36.490 107.000 1.000
36.500 124.000 1.000
36.510 122.000 1.000
36.520 112.000 1.000
36.530 112.000 1.000
36.540 113.000 1.000
36.550 109.000 1.000
36.560 95.000 1.000
36.570 106.000 1.000
36.580 123.000 1.000
36.590 120.000 1.000
36.600 108.000 1.000
36.610 102.000 1.000
36.620 106.000 1.000
36.630 105.000 1.000
36.640 99.000 1.000
36.650 103.000 1.000
36.660 103.000 1.000
36.670 118.000 1.000
36.680 118.000 1.000
36.690 108.000 1.000
36.700 105.000 1.000
36.710 130.000 1.000
36.720 114.000 1.000
36.730 95.000 1.000
36.740 116.000 1.000
36.750 118.000 1.000
36.760 96.000 1.000
36.770 111.000 1.000
36.780 108.000 1.000
36.790 110.000 1.000
36.800 110.000 1.000
36.810 111.000 1.000
36.820 100.000 1.000
36.830 90.000 1.000
36.840 106.000 1.000
36.850 103.000 1.000
36.860 104.000 1.000
36.870 115.000 1.000
36.880 113.000 1.000
36.890 108.000 1.000
36.900 113.000 1.000
36.910 108.000 1.000
36.920 102.000 1.000
36.930 107.000 1.000
36.940 113.000 1.000
36.950 119.000 1.000
36.960 114.000 1.000
36.970 105.000 1.000
36.980 117.000 1.000
36.990 110.000 1.000
37.000 109.000 1.000
37.010 102.000 1.000
37.020 105.000 1.000
37.030 121.000 1.000
37.040 110.000 1.000
37.050 92.000 1.000
37.060 107.000 1.000
37.070 113.000 1.000
37.080 93.000 1.000
37.090 103.000 1.000
37.100 112.000 1.000
37.110 121.000 1.000
37.120 109.000 1.000
37.130 95.000 1.000
37.140 100.000 1.000
37.150 111.000 1.000
37.160 98.000 1.000
37.170 102.000 1.000
37.180 111.000 1.000
37.190 102.000 1.000
37.200 111.000 1.000
37.210 105.000 1.000
37.220 110.000 1.000
37.230 106.000 1.000
37.240 103.000 1.000
37.250 102.000 1.000
37.260 100.000 1.000
37.270 109.000 1.000
37.280 101.000 1.000
37.290 92.000 1.000
37.300 99.000 1.000
37.310 99.000 1.000
37.320 97.000 1.000
37.330 93.000 1.000
37.340 109.000 1.000
37.350 110.000 1.000
37.360 101.000 1.000
37.370 105.000 1.000
37.380 92.000 1.000
37.390 109.000 1.000
37.400 91.000 1.000
37.410 93.000 1.000
37.420 104.000 1.000
37.430 109.000 1.000
37.440 118.000 1.000
37.450 111.000 1.000
37.460 110.000 1.000
37.470 93.000 1.000
37.480 114.000 1.000
37.490 114.000 1.000
37.500 97.000 1.000
37.510 98.000 1.000
37.520 93.000 1.000
37.530 101.000 1.000
37.540 120.000 1.000
37.550 112.000 1.000
37.560 110.000 1.000
37.570 109.000 1.000
37.580 113.000 1.000
37.590 114.000 1.000
37.600 108.000 1.000
37.610 96.000 1.000
37.620 107.000 1.000
37.630 102.000 1.000
37.640 102.000 1.000
37.650 108.000 1.000
37.660 104.000 1.000
37.670 99.000 1.000
37.680 113.000 1.000
37.690 112.000 1.000
37.700 107.000 1.000
37.710 113.000 1.000
37.720 103.000 1.000
37.730 105.000 1.000
37.740 102.000 1.000
37.750 103.000 1.000
37.760 120.000 1.000
37.770 109.000 1.000
37.780 108.000 1.000
37.790 111.000 1.000
37.800 105.000 1.000
37.810 106.000 1.000
37.820 112.000 1.000
37.830 125.000 1.000
37.840 105.000 1.000
37.850 91.000 1.000
37.860 116.000 1.000
37.870 113.000 1.000
37.880 103.000 1.000
37.890 112.000 1.000
37.900 111.000 1.000
37.910 108.000 1.000
37.920 107.000 1.000
37.930 116.000 1.000
37.940 117.000 1.000
37.950 109.000 1.000
37.960 109.000 1.000
37.970 104.000 1.000
37.980 97.000 1.000
37.990 111.000 1.000
38.000 107.000 1.000
38.010 108.000 1.000
38.020 115.000 1.000
38.030 115.000 1.000
38.040 112.000 1.000
38.050 108.000 1.000
38.060 108.000 1.000
38.070 113.000 1.000
38.080 96.000 1.000
38.090 92.000 1.000
38.100 101.000 1.000
38.110 105.000 1.000
38.120 115.000 1.000
38.130 105.000 1.000
38.140 102.000 1.000
38.150 103.000 1.000
38.160 101.000 1.000
38.170 91.000 1.000
38.180 95.000 1.000
38.190 93.000 1.000
38.200 103.000 1.000
38.210 109.000 1.000
38.220 108.000 1.000
38.230 109.000 1.000
38.240 105.000 1.000
38.250 101.000 1.000
38.260 106.000 1.000
38.270 87.000 1.000
38.280 87.000 1.000
38.290 104.000 1.000
38.300 106.000 1.000
38.310 110.000 1.000
38.320 106.000 1.000
38.330 114.000 1.000
38.340 112.000 1.000
38.350 101.000 1.000
38.360 104.000 1.000
38.370 116.000 1.000
38.380 111.000 1.000
38.390 108.000 1.000
38.400 115.000 1.000
38.410 99.000 1.000
38.420 94.000 1.000
38.430 94.000 1.000
38.440 123.000 1.000
38.450 104.000 1.000
38.460 100.000 1.000
38.470 101.000 1.000
38.480 96.000 1.000
38.490 104.000 1.000
38.500 99.000 1.000
38.510 109.000 1.000
38.520 105.000 1.000
38.530 110.000 1.000
38.540 101.000 1.000
38.550 108.000 1.000
38.560 104.000 1.000
38.570 105.000 1.000
38.580 87.000 1.000
38.590 93.000 1.000
38.600 118.000 1.000
38.610 122.000 1.000
38.620 114.000 1.000
38.630 105.000 1.000
38.640 109.000 1.000
38.650 112.000 1.000
38.660 102.000 1.000
38.670 95.000 1.000
38.680 103.000 1.000
38.690 105.000 1.000
38.700 99.000 1.000
38.710 103.000 1.000
38.720 109.000 1.000
38.730 98.000 1.000
38.740 101.000 1.000
38.750 105.000 1.000
38.760 103.000 1.000
38.770 97.000 1.000
38.780 102.000 1.000
38.790 100.000 1.000
38.800 98.000 1.000
38.810 109.000 1.000
38.820 110.000 1.000
38.830 109.000 1.000
38.840 108.000 1.000
38.850 110.000 1.000
38.860 111.000 1.000
38.870 100.000 1.000
38.880 113.000 1.000
38.890 117.000 1.000
38.900 94.000 1.000
38.910 88.000 1.000
38.920 111.000 1.000
38.930 102.000 1.000
38.940 105.000 1.000
38.950 110.000 1.000
38.960 111.000 1.000
38.970 100.000 1.000
38.980 101.000 1.000
38.990 113.000 1.000
39.000 97.000 1.000
39.010 91.000 1.000
39.020 100.000 1.000
39.030 110.000 1.000
39.040 109.000 1.000
39.050 103.000 1.000
39.060 106.000 1.000
39.070 99.000 1.000
39.080 103.000 1.000
39.090 101.000 1.000
39.100 109.000 1.000
39.110 99.000 1.000
39.120 103.000 1.000
39.130 100.000 1.000
39.140 91.000 1.000
39.150 103.000 1.000
39.160 114.000 1.000
39.170 105.000 1.000
39.180 106.000 1.000
39.190 112.000 1.000
39.200 102.000 1.000
39.210 102.000 1.000
39.220 111.000 1.000
39.230 105.000 1.000
39.240 106.000 1.000
39.250 113.000 1.000
39.260 111.000 1.000
39.270 96.000 1.000
39.280 101.000 1.000
39.290 97.000 1.000
39.300 112.000 1.000
39.310 122.000 1.000
39.320 109.000 1.000
39.330 98.000 1.000
39.340 110.000 1.000
39.350 119.000 1.000
39.360 116.000 1.000
39.370 112.000 1.000
39.380 117.000 1.000
39.390 113.000 1.000
39.400 102.000 1.000
39.410 93.000 1.000
39.420 106.000 1.000
39.430 112.000 1.000
39.440 112.000 1.000
39.450 116.000 1.000
39.460 108.000 1.000
39.470 104.000 1.000
39.480 114.000 1.000
39.490 109.000 1.000
39.500 106.000 1.000
39.510 102.000 1.000
39.520 97.000 1.000
39.530 101.000 1.000
39.540 104.000 1.000
39.550 102.000 1.000
39.560 96.000 1.000
39.570 106.000 1.000
39.580 101.000 1.000
39.590 106.000 1.000
39.600 112.000 1.000
39.610 104.000 1.000
39.620 106.000 1.000
39.630 109.000 1.000
39.640 117.000 1.000
39.650 111.000 1.000
39.660 95.000 1.000
39.670 97.000 1.000
39.680 110.000 1.000
39.690 122.000 1.000
39.700 103.000 1.000
39.710 97.000 1.000
39.720 117.000 1.000
39.730 102.000 1.000
39.740 95.000 1.000
39.750 111.000 1.000
39.760 101.000 1.000
39.770 103.000 1.000
39.780 99.000 1.000
39.790 112.000 1.000
39.800 105.000 1.000
39.810 109.000 1.000
39.820 110.000 1.000
39.830 112.000 1.000
39.840 111.000 1.000
39.850 117.000 1.000
39.860 112.000 1.000
39.870 114.000 1.000
39.880 107.000 1.000
39.890 108.000 1.000
39.900 114.000 1.000
39.910 109.000 1.000
39.920 111.000 1.000
39.930 104.000 1.000
39.940 116.000 1.000
39.950 115.000 1.000
39.960 117.000 1.000
39.970 107.000 1.000
39.980 98.000 1.000
39.990 105.000 1.000
40.000 106.000 1.000
40.010 85.000 1.000
40.020 95.000 1.000
40.030 97.000 1.000
40.040 92.000 1.000
40.050 101.000 1.000
40.060 99.000 1.000
40.070 101.000 1.000
40.080 114.000 1.000
40.090 115.000 1.000
40.100 109.000 1.000
40.110 111.000 1.000
40.120 113.000 1.000
40.130 111.000 1.000
40.140 109.000 1.000
40.150 107.000 1.000
40.160 126.000 1.000
40.170 120.000 1.000
40.180 107.000 1.000
40.190 109.000 1.000
40.200 115.000 1.000
40.210 113.000 1.000
40.220 99.000 1.000
40.230 109.000 1.000
40.240 122.000 1.000
40.250 108.000 1.000
40.260 97.000 1.000
40.270 94.000 1.000
40.280 101.000 1.000
40.290 101.000 1.000
40.300 99.000 1.000
40.310 103.000 1.000
40.320 106.000 1.000
40.330 104.000 1.000
40.340 98.000 1.000
40.350 103.000 1.000
40.360 108.000 1.000
40.370 122.000 1.000
40.380 115.000 1.000
40.390 114.000 1.000
40.400 115.000 1.000
40.410 119.000 1.000
40.420 108.000 1.000
40.430 111.000 1.000
40.440 121.000 1.000
40.450 132.000 1.000
40.460 139.000 1.000
40.470 122.000 1.000
40.480 129.000 1.000
40.490 118.000 1.000
40.500 115.000 1.000
40.510 121.000 1.000
40.520 122.000 1.000
40.530 122.000 1.000
40.540 134.000 1.000
40.550 119.000 1.000
40.560 109.000 1.000
40.570 129.000 1.000
40.580 139.000 1.000
40.590 133.000 1.000
40.600 138.000 1.000
40.610 128.000 1.000
40.620 143.000 1.000
40.630 142.000 1.000
40.640 130.000 1.000
40.650 138.000 1.000
40.660 128.000 1.000
40.670 143.000 1.000
40.680 131.000 1.000
40.690 143.000 1.000
40.700 137.000 1.000
40.710 122.000 1.000
40.720 142.000 1.000
40.730 139.000 1.000
40.740 133.000 1.000
40.750 119.000 1.000
40.760 127.000 1.000
40.770 132.000 1.000
40.780 133.000 1.000
40.790 135.000 1.000
40.800 118.000 1.000
40.810 112.000 1.000
40.820 119.000 1.000
40.830 115.000 1.000
40.840 126.000 1.000
40.850 134.000 1.000
40.860 119.000 1.000
40.870 117.000 1.000
40.880 132.000 1.000
40.890 112.000 1.000
40.900 113.000 1.000
40.910 115.000 1.000
40.920 108.000 1.000
40.930 114.000 1.000
40.940 125.000 1.000
40.950 119.000 1.000
40.960 121.000 1.000
40.970 124.000 1.000
40.980 119.000 1.000
40.990 109.000 1.000
41.000 117.000 1.000
41.010 106.000 1.000
41.020 119.000 1.000
41.030 133.000 1.000
41.040 112.000 1.000
41.050 117.000 1.000
41.060 125.000 1.000
41.070 123.000 1.000
41.080 105.000 1.000
41.090 124.000 1.000
41.100 131.000 1.000
41.110 113.000 1.000
41.120 112.000 1.000
41.130 114.000 1.000
41.140 116.000 1.000
41.150 111.000 1.000
41.160 107.000 1.000
41.170 109.000 1.000
41.180 119.000 1.000
41.190 117.000 1.000
41.200 113.000 1.000
41.210 110.000 1.000
41.220 105.000 1.000
41.230 102.000 1.000
41.240 100.000 1.000
41.250 127.000 1.000
41.260 118.000 1.000
41.270 116.000 1.000
41.280 121.000 1.000
41.290 110.000 1.000
41.300 108.000 1.000
41.310 134.000 1.000
41.320 137.000 1.000
41.330 114.000 1.000
41.340 110.000 1.000
41.350 128.000 1.000
41.360 134.000 1.000
41.370 125.000 1.000
41.380 118.000 1.000
41.390 127.000 1.000
41.400 131.000 1.000
41.410 117.000 1.000
41.420 114.000 1.000
41.430 127.000 1.000
41.440 114.000 1.000
41.450 131.000 1.000
41.460 130.000 1.000
41.470 127.000 1.000
41.480 116.000 1.000
41.490 116.000 1.000
41.500 108.000 1.000
41.510 122.000 1.000
41.520 120.000 1.000
41.530 117.000 1.000
41.540 102.000 1.000
41.550 116.000 1.000
41.560 110.000 1.000
41.570 108.000 1.000
41.580 120.000 1.000
41.590 126.000 1.000
41.600 128.000 1.000
41.610 127.000 1.000
41.620 104.000 1.000
41.630 106.000 1.000
41.640 117.000 1.000
41.650 111.000 1.000
41.660 118.000 1.000
41.670 117.000 1.000
41.680 105.000 1.000
41.690 112.000 1.000
41.700 113.000 1.000
41.710 101.000 1.000
41.720 110.000 1.000
41.730 119.000 1.000
41.740 109.000 1.000
41.750 110.000 1.000
41.760 107.000 1.000
41.770 109.000 1.000
41.780 111.000 1.000
41.790 103.000 1.000
41.800 97.000 1.000
41.810 105.000 1.000
41.820 105.000 1.000
41.830 104.000 1.000
41.840 106.000 1.000
41.850 119.000 1.000
41.860 108.000 1.000
41.870 113.000 1.000
41.880 114.000 1.000
41.890 116.000 1.000
41.900 128.000 1.000
41.910 107.000 1.000
41.920 111.000 1.000
41.930 113.000 1.000
41.940 105.000 1.000
41.950 107.000 1.000
41.960 109.000 1.000
41.970 113.000 1.000
41.980 121.000 1.000
41.990 110.000 1.000
42.000 109.000 1.000
42.010 118.000 1.000
42.020 118.000 1.000
42.030 129.000 1.000
42.040 131.000 1.000
42.050 113.000 1.000
42.060 121.000 1.000
42.070 135.000 1.000
42.080 127.000 1.000
42.090 117.000 1.000
42.100 139.000 1.000
42.110 127.000 1.000
42.120 135.000 1.000
42.130 144.000 1.000
42.140 133.000 1.000
42.150 148.000 1.000
42.160 158.000 1.000
42.170 140.000 1.000
42.180 117.000 1.000
42.190 113.000 1.000
42.200 124.000 1.000
42.210 129.000 1.000
42.220 131.000 1.000
42.230 127.000 1.000
42.240 128.000 1.000
42.250 123.000 1.000
42.260 115.000 1.000
42.270 128.000 1.000
42.280 117.000 1.000
42.290 121.000 1.000
42.300 123.000 1.000
42.310 114.000 1.000
42.320 130.000 1.000
42.330 128.000 1.000
42.340 130.000 1.000
42.350 135.000 1.000
42.360 121.000 1.000
42.370 120.000 1.000
42.380 128.000 1.000
42.390 123.000 1.000
42.400 127.000 1.000
42.410 117.000 1.000
42.420 120.000 1.000
42.430 126.000 1.000
42.440 131.000 1.000
42.450 130.000 1.000
42.460 134.000 1.000
42.470 118.000 1.000
42.480 121.000 1.000
42.490 125.000 1.000
42.500 109.000 1.000
42.510 109.000 1.000
42.520 114.000 1.000
42.530 118.000 1.000
42.540 121.000 1.000
42.550 133.000 1.000
42.560 113.000 1.000
42.570 136.000 1.000
42.580 124.000 1.000
42.590 120.000 1.000
42.600 122.000 1.000
42.610 128.000 1.000
42.620 126.000 1.000
42.630 132.000 1.000
42.640 147.000 1.000
42.650 129.000 1.000
42.660 119.000 1.000
42.670 111.000 1.000
42.680 108.000 1.000
42.690 112.000 1.000
42.700 124.000 1.000
42.710 108.000 1.000
42.720 113.000 1.000
42.730 102.000 1.000
42.740 127.000 1.000
42.750 131.000 1.000
42.760 116.000 1.000
42.770 106.000 1.000
42.780 124.000 1.000
42.790 127.000 1.000
42.800 135.000 1.000
42.810 117.000 1.000
42.820 124.000 1.000
42.830 133.000 1.000
42.840 136.000 1.000
42.850 140.000 1.000
42.860 128.000 1.000
42.870 120.000 1.000
42.880 129.000 1.000
42.890 122.000 1.000
42.900 138.000 1.000
42.910 128.000 1.000
42.920 132.000 1.000
42.930 118.000 1.000
42.940 119.000 1.000
42.950 122.000 1.000
42.960 114.000 1.000
42.970 135.000 1.000
42.980 123.000 1.000
42.990 114.000 1.000
43.000 120.000 1.000
43.010 124.000 1.000
43.020 120.000 1.000
43.030 122.000 1.000
43.040 135.000 1.000
43.050 130.000 1.000
43.060 128.000 1.000
43.070 115.000 1.000
43.080 121.000 1.000
43.090 118.000 1.000
43.100 117.000 1.000
43.110 129.000 1.000
43.120 127.000 1.000
43.130 126.000 1.000
43.140 114.000 1.000
43.150 130.000 1.000
43.160 120.000 1.000
43.170 117.000 1.000
43.180 109.000 1.000
43.190 114.000 1.000
43.200 125.000 1.000
43.210 121.000 1.000
43.220 112.000 1.000
43.230 112.000 1.000
43.240 117.000 1.000
43.250 124.000 1.000
43.260 116.000 1.000
43.270 117.000 1.000
43.280 125.000 1.000
43.290 110.000 1.000
43.300 98.000 1.000
43.310 128.000 1.000
43.320 121.000 1.000
43.330 103.000 1.000
43.340 104.000 1.000
43.350 101.000 1.000
43.360 104.000 1.000
43.370 105.000 1.000
43.380 111.000 1.000
43.390 123.000 1.000
43.400 109.000 1.000
43.410 100.000 1.000
43.420 107.000 1.000
43.430 116.000 1.000
43.440 108.000 1.000
43.450 102.000 1.000
43.460 106.000 1.000
43.470 105.000 1.000
43.480 103.000 1.000
43.490 103.000 1.000
43.500 114.000 1.000
43.510 106.000 1.000
43.520 107.000 1.000
43.530 109.000 1.000
43.540 120.000 1.000
43.550 112.000 1.000
43.560 115.000 1.000
43.570 115.000 1.000
43.580 114.000 1.000
43.590 120.000 1.000
43.600 109.000 1.000
43.610 115.000 1.000
43.620 116.000 1.000
43.630 99.000 1.000
43.640 103.000 1.000
43.650 106.000 1.000
43.660 118.000 1.000
43.670 125.000 1.000
43.680 119.000 1.000
43.690 119.000 1.000
43.700 130.000 1.000
43.710 137.000 1.000
43.720 132.000 1.000
43.730 126.000 1.000
43.740 107.000 1.000
43.750 122.000 1.000
43.760 123.000 1.000
43.770 116.000 1.000
43.780 113.000 1.000
43.790 113.000 1.000
43.800 121.000 1.000
43.810 118.000 1.000
43.820 123.000 1.000
43.830 122.000 1.000
43.840 110.000 1.000
43.850 110.000 1.000
43.860 120.000 1.000
43.870 130.000 1.000
43.880 122.000 1.000
43.890 121.000 1.000
43.900 115.000 1.000
43.910 114.000 1.000
43.920 118.000 1.000
43.930 123.000 1.000
43.940 109.000 1.000
43.950 101.000 1.000
43.960 116.000 1.000
43.970 123.000 1.000
43.980 127.000 1.000
43.990 127.000 1.000
44.000 125.000 1.000
44.010 129.000 1.000
44.020 121.000 1.000
44.030 107.000 1.000
44.040 114.000 1.000
44.050 129.000 1.000
44.060 127.000 1.000
44.070 120.000 1.000
44.080 115.000 1.000
44.090 119.000 1.000
44.100 126.000 1.000
44.110 131.000 1.000
44.120 131.000 1.000
44.130 121.000 1.000
44.140 117.000 1.000
44.150 119.000 1.000
44.160 117.000 1.000
44.170 114.000 1.000
44.180 120.000 1.000
44.190 112.000 1.000
44.200 125.000 1.000
44.210 121.000 1.000
44.220 111.000 1.000
44.230 127.000 1.000
44.240 118.000 1.000
44.250 118.000 1.000
44.260 110.000 1.000
44.270 123.000 1.000
44.280 131.000 1.000
44.290 119.000 1.000
44.300 125.000 1.000
44.310 118.000 1.000
44.320 109.000 1.000
44.330 102.000 1.000
44.340 108.000 1.000
44.350 107.000 1.000
44.360 108.000 1.000
44.370 130.000 1.000
44.380 129.000 1.000
44.390 114.000 1.000
44.400 115.000 1.000
44.410 104.000 1.000
44.420 121.000 1.000
44.430 116.000 1.000
44.440 113.000 1.000
44.450 111.000 1.000
44.460 110.000 1.000
44.470 120.000 1.000
44.480 123.000 1.000
44.490 122.000 1.000
44.500 119.000 1.000
44.510 114.000 1.000
44.520 111.000 1.000
44.530 110.000 1.000
44.540 117.000 1.000
44.550 120.000 1.000
44.560 118.000 1.000
44.570 114.000 1.000
44.580 117.000 1.000
44.590 111.000 1.000
44.600 112.000 1.000
44.610 108.000 1.000
44.620 111.000 1.000
44.630 107.000 1.000
44.640 119.000 1.000
44.650 126.000 1.000
44.660 124.000 1.000
44.670 112.000 1.000
44.680 110.000 1.000
44.690 121.000 1.000
44.700 120.000 1.000
44.710 116.000 1.000
44.720 122.000 1.000
44.730 123.000 1.000
44.740 115.000 1.000
44.750 125.000 1.000
44.760 123.000 1.000
44.770 106.000 1.000
44.780 112.000 1.000
44.790 120.000 1.000
44.800 107.000 1.000
44.810 110.000 1.000
44.820 105.000 1.000
44.830 115.000 1.000
44.840 107.000 1.000
44.850 107.000 1.000
44.860 115.000 1.000
44.870 115.000 1.000
44.880 115.000 1.000
44.890 120.000 1.000
44.900 127.000 1.000
44.910 106.000 1.000
44.920 109.000 1.000
44.930 111.000 1.000
44.940 111.000 1.000
44.950 109.000 1.000
44.960 107.000 1.000
44.970 113.000 1.000
44.980 124.000 1.000
44.990 119.000 1.000
45.000 108.000 1.000
45.010 120.000 1.000
45.020 138.000 1.000
45.030 113.000 1.000
45.040 105.000 1.000
45.050 103.000 1.000
45.060 106.000 1.000
45.070 112.000 1.000
45.080 111.000 1.000
45.090 110.000 1.000
45.100 113.000 1.000
45.110 113.000 1.000
45.120 115.000 1.000
45.130 126.000 1.000
45.140 123.000 1.000
45.150 116.000 1.000
45.160 103.000 1.000
45.170 113.000 1.000
45.180 121.000 1.000
45.190 109.000 1.000
45.200 115.000 1.000
45.210 118.000 1.000
45.220 131.000 1.000
45.230 118.000 1.000
45.240 116.000 1.000
45.250 103.000 1.000
45.260 102.000 1.000
45.270 114.000 1.000
45.280 103.000 1.000
45.290 119.000 1.000
45.300 124.000 1.000
45.310 119.000 1.000
45.320 133.000 1.000
45.330 143.000 1.000
45.340 132.000 1.000
45.350 120.000 1.000
45.360 122.000 1.000
45.370 115.000 1.000
45.380 115.000 1.000
45.390 114.000 1.000
45.400 115.000 1.000
45.410 120.000 1.000
45.420 123.000 1.000
45.430 129.000 1.000
45.440 113.000 1.000
45.450 122.000 1.000
45.460 123.000 1.000
45.470 131.000 1.000
45.480 123.000 1.000
45.490 133.000 1.000
45.500 141.000 1.000
45.510 125.000 1.000
45.520 113.000 1.000
45.530 124.000 1.000
45.540 135.000 1.000
45.550 134.000 1.000
45.560 128.000 1.000
45.570 123.000 1.000
45.580 119.000 1.000
45.590 117.000 1.000
45.600 125.000 1.000
45.610 122.000 1.000
45.620 120.000 1.000
45.630 129.000 1.000
45.640 144.000 1.000
45.650 123.000 1.000
45.660 113.000 1.000
45.670 121.000 1.000
45.680 129.000 1.000
45.690 117.000 1.000
45.700 113.000 1.000
45.710 117.000 1.000
45.720 109.000 1.000
45.730 117.000 1.000
45.740 113.000 1.000
45.750 120.000 1.000
45.760 113.000 1.000
45.770 113.000 1.000
45.780 126.000 1.000
45.790 107.000 1.000
45.800 115.000 1.000
45.810 111.000 1.000
45.820 110.000 1.000
45.830 131.000 1.000
45.840 121.000 1.000
45.850 122.000 1.000
45.860 117.000 1.000
45.870 112.000 1.000
45.880 114.000 1.000
45.890 121.000 1.000
45.900 110.000 1.000
45.910 88.000 1.000
45.920 98.000 1.000
45.930 101.000 1.000
45.940 100.000 1.000
45.950 97.000 1.000
45.960 107.000 1.000
45.970 100.000 1.000
45.980 99.000 1.000
45.990 110.000 1.000
46.000 103.000 1.000
46.010 109.000 1.000
46.020 120.000 1.000
46.030 121.000 1.000
46.040 110.000 1.000
46.050 104.000 1.000
46.060 115.000 1.000
46.070 104.000 1.000
46.080 104.000 1.000
46.090 118.000 1.000
46.100 113.000 1.000
46.110 114.000 1.000
46.120 111.000 1.000
46.130 121.000 1.000
46.140 118.000 1.000
46.150 134.000 1.000
46.160 138.000 1.000
46.170 123.000 1.000
46.180 108.000 1.000
46.190 103.000 1.000
46.200 103.000 1.000
46.210 116.000 1.000
46.220 122.000 1.000
46.230 124.000 1.000
46.240 105.000 1.000
46.250 116.000 1.000
46.260 134.000 1.000
46.270 115.000 1.000
46.280 114.000 1.000
46.290 112.000 1.000
46.300 107.000 1.000
46.310 117.000 1.000
46.320 114.000 1.000
46.330 113.000 1.000
46.340 115.000 1.000
46.350 118.000 1.000
46.360 102.000 1.000
46.370 115.000 1.000
46.380 106.000 1.000
46.390 109.000 1.000
46.400 108.000 1.000
46.410 122.000 1.000
46.420 114.000 1.000
46.430 110.000 1.000
46.440 113.000 1.000
46.450 111.000 1.000
46.460 122.000 1.000
46.470 111.000 1.000
46.480 111.000 1.000
46.490 124.000 1.000
46.500 115.000 1.000
46.510 124.000 1.000
46.520 123.000 1.000
46.530 127.000 1.000
46.540 126.000 1.000
46.550 123.000 1.000
46.560 121.000 1.000
46.570 115.000 1.000
46.580 115.000 1.000
46.590 109.000 1.000
46.600 109.000 1.000
46.610 130.000 1.000
46.620 121.000 1.000
46.630 112.000 1.000
46.640 119.000 1.000
46.650 117.000 1.000
46.660 125.000 1.000
46.670 123.000 1.000
46.680 118.000 1.000
46.690 121.000 1.000
46.700 120.000 1.000
46.710 124.000 1.000
46.720 123.000 1.000
46.730 117.000 1.000
46.740 119.000 1.000
46.750 126.000 1.000
46.760 114.000 1.000
46.770 117.000 1.000
46.780 130.000 1.000
46.790 135.000 1.000
46.800 126.000 1.000
46.810 107.000 1.000
46.820 120.000 1.000
46.830 127.000 1.000
46.840 114.000 1.000
46.850 108.000 1.000
46.860 117.000 1.000
46.870 116.000 1.000
46.880 121.000 1.000
46.890 122.000 1.000
46.900 129.000 1.000
46.910 120.000 1.000
46.920 127.000 1.000
46.930 128.000 1.000
46.940 118.000 1.000
46.950 119.000 1.000
46.960 125.000 1.000
46.970 113.000 1.000
46.980 130.000 1.000
46.990 139.000 1.000
47.000 111.000 1.000
47.010 109.000 1.000
47.020 123.000 1.000
47.030 127.000 1.000
47.040 127.000 1.000
47.050 122.000 1.000
47.060 119.000 1.000
47.070 126.000 1.000
47.080 134.000 1.000
47.090 146.000 1.000
47.100 136.000 1.000
47.110 122.000 1.000
47.120 117.000 1.000
47.130 130.000 1.000
47.140 125.000 1.000
47.150 127.000 1.000
47.160 122.000 1.000
47.170 113.000 1.000
47.180 118.000 1.000
47.190 117.000 1.000
47.200 126.000 1.000
47.210 123.000 1.000
47.220 123.000 1.000
47.230 115.000 1.000
47.240 108.000 1.000
47.250 107.000 1.000
47.260 116.000 1.000
47.270 123.000 1.000
47.280 126.000 1.000
47.290 113.000 1.000
47.300 103.000 1.000
47.310 115.000 1.000
47.320 130.000 1.000
47.330 121.000 1.000
47.340 112.000 1.000
47.350 121.000 1.000
47.360 113.000 1.000
47.370 108.000 1.000
47.380 104.000 1.000
47.390 114.000 1.000
47.400 128.000 1.000
47.410 137.000 1.000
47.420 132.000 1.000
47.430 124.000 1.000
47.440 119.000 1.000
47.450 119.000 1.000
47.460 113.000 1.000
47.470 108.000 1.000
47.480 104.000 1.000
47.490 121.000 1.000
47.500 123.000 1.000
47.510 110.000 1.000
47.520 111.000 1.000
47.530 107.000 1.000
47.540 110.000 1.000
47.550 125.000 1.000
47.560 127.000 1.000
47.570 109.000 1.000
47.580 110.000 1.000
47.590 117.000 1.000
47.600 118.000 1.000
47.610 115.000 1.000
47.620 112.000 1.000
47.630 119.000 1.000
47.640 123.000 1.000
47.650 144.000 1.000
47.660 121.000 1.000
47.670 123.000 1.000
47.680 132.000 1.000
47.690 128.000 1.000
47.700 130.000 1.000
47.710 128.000 1.000
47.720 125.000 1.000
47.730 119.000 1.000
47.740 113.000 1.000
47.750 111.000 1.000
47.760 98.000 1.000
47.770 121.000 1.000
47.780 112.000 1.000
47.790 126.000 1.000
47.800 124.000 1.000
47.810 120.000 1.000
47.820 126.000 1.000
47.830 112.000 1.000
47.840 122.000 1.000
47.850 130.000 1.000
47.860 119.000 1.000
47.870 124.000 1.000
47.880 127.000 1.000
47.890 120.000 1.000
47.900 118.000 1.000
47.910 125.000 1.000
47.920 129.000 1.000
47.930 117.000 1.000
47.940 132.000 1.000
47.950 122.000 1.000
47.960 108.000 1.000
47.970 125.000 1.000
47.980 121.000 1.000
47.990 110.000 1.000
48.000 118.000 1.000
48.010 143.000 1.000
48.020 125.000 1.000
48.030 117.000 1.000
48.040 119.000 1.000
48.050 116.000 1.000
48.060 121.000 1.000
48.070 128.000 1.000
48.080 124.000 1.000
48.090 107.000 1.000
48.100 112.000 1.000
48.110 106.000 1.000
48.120 100.000 1.000
48.130 112.000 1.000
48.140 111.000 1.000
48.150 111.000 1.000
48.160 128.000 1.000
48.170 128.000 1.000
48.180 119.000 1.000
48.190 114.000 1.000
48.200 111.000 1.000
48.210 115.000 1.000
48.220 100.000 1.000
48.230 110.000 1.000
48.240 97.000 1.000
48.250 94.000 1.000
48.260 105.000 1.000
48.270 115.000 1.000
48.280 118.000 1.000
48.290 101.000 1.000
48.300 103.000 1.000
48.310 114.000 1.000
48.320 106.000 1.000
48.330 104.000 1.000
48.340 127.000 1.000
48.350 133.000 1.000
48.360 131.000 1.000
48.370 119.000 1.000
48.380 115.000 1.000
48.390 104.000 1.000
48.400 116.000 1.000
48.410 123.000 1.000
48.420 109.000 1.000
48.430 107.000 1.000
48.440 110.000 1.000
48.450 112.000 1.000
48.460 134.000 1.000
48.470 120.000 1.000
48.480 111.000 1.000
48.490 126.000 1.000
48.500 109.000 1.000
48.510 120.000 1.000
48.520 111.000 1.000
48.530 106.000 1.000
48.540 109.000 1.000
48.550 110.000 1.000
48.560 115.000 1.000
48.570 120.000 1.000
48.580 113.000 1.000
48.590 106.000 1.000
48.600 121.000 1.000
48.610 130.000 1.000
48.620 130.000 1.000
48.630 117.000 1.000
48.640 113.000 1.000
48.650 114.000 1.000
48.660 132.000 1.000
48.670 126.000 1.000
48.680 105.000 1.000
48.690 121.000 1.000
48.700 121.000 1.000
48.710 115.000 1.000
48.720 109.000 1.000
48.730 114.000 1.000
48.740 125.000 1.000
48.750 117.000 1.000
48.760 116.000 1.000
48.770 124.000 1.000
48.780 119.000 1.000
48.790 115.000 1.000
48.800 111.000 1.000
48.810 106.000 1.000
48.820 110.000 1.000
48.830 110.000 1.000
48.840 114.000 1.000
48.850 107.000 1.000
48.860 106.000 1.000
48.870 122.000 1.000
48.880 112.000 1.000
48.890 111.000 1.000
48.900 115.000 1.000
48.910 120.000 1.000
48.920 112.000 1.000
48.930 116.000 1.000
48.940 115.000 1.000
48.950 116.000 1.000
48.960 106.000 1.000
48.970 119.000 1.000
48.980 118.000 1.000
48.990 116.000 1.000
49.000 113.000 1.000
49.010 104.000 1.000
49.020 112.000 1.000
49.030 122.000 1.000
49.040 115.000 1.000
49.050 113.000 1.000
49.060 104.000 1.000
49.070 120.000 1.000
49.080 115.000 1.000
49.090 102.000 1.000
49.100 117.000 1.000
49.110 115.000 1.000
49.120 120.000 1.000
49.130 117.000 1.000
49.140 122.000 1.000
49.150 111.000 1.000
49.160 109.000 1.000
49.170 103.000 1.000
49.180 113.000 1.000
49.190 126.000 1.000
49.200 121.000 1.000
49.210 113.000 1.000
49.220 119.000 1.000
49.230 114.000 1.000
49.240 129.000 1.000
49.250 123.000 1.000
49.260 114.000 1.000
49.270 125.000 1.000
49.280 113.000 1.000
49.290 116.000 1.000
49.300 114.000 1.000
49.310 117.000 1.000
49.320 126.000 1.000
49.330 110.000 1.000
49.340 110.000 1.000
49.350 112.000 1.000
49.360 116.000 1.000
49.370 111.000 1.000
49.380 101.000 1.000
49.390 106.000 1.000
49.400 120.000 1.000
49.410 118.000 1.000
49.420 117.000 1.000
49.430 126.000 1.000
49.440 115.000 1.000
49.450 117.000 1.000
49.460 118.000 1.000
49.470 115.000 1.000
49.480 115.000 1.000
49.490 121.000 1.000
49.500 109.000 1.000
49.510 114.000 1.000
49.520 124.000 1.000
49.530 125.000 1.000
49.540 127.000 1.000
49.550 123.000 1.000
49.560 109.000 1.000
49.570 103.000 1.000
49.580 111.000 1.000
49.590 115.000 1.000
49.600 114.000 1.000
49.610 128.000 1.000
49.620 118.000 1.000
49.630 110.000 1.000
49.640 113.000 1.000
49.650 108.000 1.000
49.660 110.000 1.000
49.670 117.000 1.000
49.680 120.000 1.000
49.690 109.000 1.000
49.700 103.000 1.000
49.710 107.000 1.000
49.720 115.000 1.000
49.730 99.000 1.000
49.740 117.000 1.000
49.750 114.000 1.000
49.760 103.000 1.000
49.770 114.000 1.000
49.780 116.000 1.000
49.790 113.000 1.000
49.800 108.000 1.000
49.810 105.000 1.000
49.820 117.000 1.000
49.830 104.000 1.000
49.840 95.000 1.000
49.850 108.000 1.000
49.860 88.000 1.000
49.870 110.000 1.000
49.880 116.000 1.000
49.890 120.000 1.000
49.900 119.000 1.000
49.910 121.000 1.000
49.920 108.000 1.000
49.930 106.000 1.000
49.940 108.000 1.000
49.950 113.000 1.000
49.960 105.000 1.000
49.970 113.000 1.000
49.980 111.000 1.000
49.990 110.000 1.000
50.000 111.000 1.000
50.010 115.000 1.000
50.020 109.000 1.000
50.030 114.000 1.000
50.040 111.000 1.000
50.050 112.000 1.000
50.060 108.000 1.000
50.070 101.000 1.000
50.080 113.000 1.000
50.090 111.000 1.000
50.100 119.000 1.000
50.110 102.000 1.000
50.120 92.000 1.000
50.130 100.000 1.000
50.140 107.000 1.000
50.150 124.000 1.000
50.160 123.000 1.000
50.170 120.000 1.000
50.180 102.000 1.000
50.190 113.000 1.000
50.200 127.000 1.000
50.210 125.000 1.000
50.220 124.000 1.000
50.230 129.000 1.000
50.240 111.000 1.000
50.250 116.000 1.000
50.260 117.000 1.000
50.270 121.000 1.000
50.280 113.000 1.000
50.290 120.000 1.000
50.300 103.000 1.000
50.310 100.000 1.000
50.320 94.000 1.000
50.330 109.000 1.000
50.340 107.000 1.000
50.350 122.000 1.000
50.360 121.000 1.000
50.370 99.000 1.000
50.380 105.000 1.000
50.390 113.000 1.000
50.400 116.000 1.000
50.410 102.000 1.000
50.420 106.000 1.000
50.430 109.000 1.000
50.440 111.000 1.000
50.450 105.000 1.000
50.460 116.000 1.000
50.470 119.000 1.000
50.480 111.000 1.000
50.490 115.000 1.000
50.500 114.000 1.000
50.510 105.000 1.000
50.520 107.000 1.000
50.530 97.000 1.000
50.540 118.000 1.000
50.550 116.000 1.000
50.560 112.000 1.000
50.570 112.000 1.000
50.580 110.000 1.000
50.590 107.000 1.000
50.600 119.000 1.000
50.610 126.000 1.000
50.620 127.000 1.000
50.630 116.000 1.000
50.640 121.000 1.000
50.650 116.000 1.000
50.660 127.000 1.000
50.670 122.000 1.000
50.680 113.000 1.000
50.690 113.000 1.000
50.700 112.000 1.000
50.710 115.000 1.000
50.720 108.000 1.000
50.730 105.000 1.000
50.740 107.000 1.000
50.750 107.000 1.000
50.760 109.000 1.000
50.770 117.000 1.000
50.780 106.000 1.000
50.790 111.000 1.000
50.800 111.000 1.000
50.810 98.000 1.000
50.820 98.000 1.000
50.830 113.000 1.000
50.840 127.000 1.000
50.850 121.000 1.000
50.860 128.000 1.000
50.870 117.000 1.000
50.880 111.000 1.000
50.890 115.000 1.000
50.900 110.000 1.000
50.910 109.000 1.000
50.920 117.000 1.000
50.930 119.000 1.000
50.940 108.000 1.000
50.950 100.000 1.000
50.960 99.000 1.000
50.970 107.000 1.000
50.980 111.000 1.000
50.990 110.000 1.000
51.000 103.000 1.000
51.010 105.000 1.000
51.020 117.000 1.000
51.030 114.000 1.000
51.040 115.000 1.000
51.050 103.000 1.000
51.060 105.000 1.000
51.070 108.000 1.000
51.080 103.000 1.000
51.090 105.000 1.000
51.100 103.000 1.000
51.110 104.000 1.000
51.120 122.000 1.000
51.130 120.000 1.000
51.140 109.000 1.000
51.150 112.000 1.000
51.160 104.000 1.000
51.170 113.000 1.000
51.180 115.000 1.000
51.190 117.000 1.000
51.200 111.000 1.000
51.210 104.000 1.000
51.220 109.000 1.000
51.230 110.000 1.000
51.240 121.000 1.000
51.250 101.000 1.000
51.260 93.000 1.000
51.270 99.000 1.000
51.280 102.000 1.000
51.290 100.000 1.000
51.300 104.000 1.000
51.310 112.000 1.000
51.320 112.000 1.000
51.330 119.000 1.000
51.340 129.000 1.000
51.350 127.000 1.000
51.360 109.000 1.000
51.370 103.000 1.000
51.380 104.000 1.000
51.390 110.000 1.000
51.400 108.000 1.000
51.410 110.000 1.000
51.420 107.000 1.000
51.430 93.000 1.000
51.440 118.000 1.000
51.450 117.000 1.000
51.460 99.000 1.000
51.470 111.000 1.000
51.480 106.000 1.000
51.490 116.000 1.000
51.500 119.000 1.000
51.510 109.000 1.000
51.520 108.000 1.000
51.530 104.000 1.000
51.540 101.000 1.000
51.550 118.000 1.000
51.560 103.000 1.000
51.570 110.000 1.000
51.580 117.000 1.000
51.590 107.000 1.000
51.600 106.000 1.000
51.610 116.000 1.000
51.620 102.000 1.000
51.630 107.000 1.000
51.640 84.000 1.000
51.650 99.000 1.000
51.660 106.000 1.000
51.670 105.000 1.000
51.680 118.000 1.000
51.690 115.000 1.000
51.700 114.000 1.000
51.710 123.000 1.000
51.720 113.000 1.000
51.730 100.000 1.000
51.740 103.000 1.000
51.750 105.000 1.000
51.760 109.000 1.000
51.770 100.000 1.000
51.780 98.000 1.000
51.790 113.000 1.000
51.800 106.000 1.000
51.810 110.000 1.000
51.820 120.000 1.000
51.830 112.000 1.000
51.840 113.000 1.000
51.850 126.000 1.000
51.860 121.000 1.000
51.870 128.000 1.000
51.880 115.000 1.000
51.890 118.000 1.000
51.900 111.000 1.000
51.910 112.000 1.000
51.920 121.000 1.000
51.930 107.000 1.000
51.940 107.000 1.000
51.950 121.000 1.000
51.960 108.000 1.000
51.970 102.000 1.000
51.980 99.000 1.000
51.990 103.000 1.000
52.000 117.000 1.000
52.010 118.000 1.000
52.020 101.000 1.000
52.030 82.000 1.000
52.040 92.000 1.000
52.050 116.000 1.000
52.060 113.000 1.000
52.070 85.000 1.000
52.080 114.000 1.000
52.090 119.000 1.000
52.100 94.000 1.000
52.110 97.000 1.000
52.120 93.000 1.000
52.130 111.000 1.000
52.140 125.000 1.000
52.150 106.000 1.000
52.160 111.000 1.000
52.170 114.000 1.000
52.180 113.000 1.000
52.190 111.000 1.000
52.200 107.000 1.000
52.210 116.000 1.000
52.220 107.000 1.000
52.230 103.000 1.000
52.240 111.000 1.000
52.250 125.000 1.000
52.260 106.000 1.000
52.270 91.000 1.000
52.280 98.000 1.000
52.290 87.000 1.000
52.300 94.000 1.000
52.310 111.000 1.000
52.320 110.000 1.000
52.330 103.000 1.000
52.340 107.000 1.000
52.350 106.000 1.000
52.360 113.000 1.000
52.370 114.000 1.000
52.380 118.000 1.000
52.390 106.000 1.000
52.400 108.000 1.000
52.410 115.000 1.000
52.420 112.000 1.000
52.430 119.000 1.000
52.440 126.000 1.000
52.450 122.000 1.000
52.460 100.000 1.000
52.470 126.000 1.000
52.480 114.000 1.000
52.490 119.000 1.000
52.500 120.000 1.000
52.510 105.000 1.000
52.520 117.000 1.000
52.530 107.000 1.000
52.540 116.000 1.000
52.550 116.000 1.000
52.560 121.000 1.000
52.570 117.000 1.000
52.580 115.000 1.000
52.590 112.000 1.000
52.600 115.000 1.000
52.610 118.000 1.000
52.620 113.000 1.000
52.630 116.000 1.000
52.640 105.000 1.000
52.650 118.000 1.000
52.660 125.000 1.000
52.670 94.000 1.000
52.680 106.000 1.000
52.690 122.000 1.000
52.700 113.000 1.000
52.710 110.000 1.000
52.720 121.000 1.000
52.730 126.000 1.000
52.740 108.000 1.000
52.750 122.000 1.000
52.760 115.000 1.000
52.770 106.000 1.000
52.780 115.000 1.000
52.790 119.000 1.000
52.800 103.000 1.000
52.810 100.000 1.000
52.820 110.000 1.000
52.830 114.000 1.000
52.840 114.000 1.000
52.850 115.000 1.000
52.860 116.000 1.000
52.870 109.000 1.000
52.880 104.000 1.000
52.890 100.000 1.000
52.900 100.000 1.000
52.910 112.000 1.000
52.920 109.000 1.000
52.930 105.000 1.000
52.940 114.000 1.000
52.950 117.000 1.000
52.960 107.000 1.000
52.970 110.000 1.000
52.980 111.000 1.000
52.990 116.000 1.000
53.000 119.000 1.000
53.010 117.000 1.000
53.020 112.000 1.000
53.030 126.000 1.000
53.040 137.000 1.000
53.050 124.000 1.000
53.060 114.000 1.000
53.070 104.000 1.000
53.080 102.000 1.000
53.090 116.000 1.000
53.100 114.000 1.000
53.110 100.000 1.000
53.120 107.000 1.000
53.130 114.000 1.000
53.140 120.000 1.000
53.150 112.000 1.000
53.160 94.000 1.000
53.170 123.000 1.000
53.180 134.000 1.000
53.190 109.000 1.000
53.200 115.000 1.000
53.210 115.000 1.000
53.220 108.000 1.000
53.230 113.000 1.000
53.240 117.000 1.000
53.250 113.000 1.000
53.260 110.000 1.000
53.270 115.000 1.000
53.280 129.000 1.000
53.290 120.000 1.000
53.300 123.000 1.000
53.310 110.000 1.000
53.320 121.000 1.000
53.330 121.000 1.000
53.340 120.000 1.000
53.350 112.000 1.000
53.360 105.000 1.000
53.370 108.000 1.000
53.380 109.000 1.000
53.390 118.000 1.000
53.400 120.000 1.000
53.410 118.000 1.000
53.420 118.000 1.000
53.430 113.000 1.000
53.440 110.000 1.000
53.450 110.000 1.000
53.460 114.000 1.000
53.470 117.000 1.000
53.480 118.000 1.000
53.490 105.000 1.000
53.500 97.000 1.000
53.510 117.000 1.000
53.520 119.000 1.000
53.530 120.000 1.000
53.540 119.000 1.000
53.550 103.000 1.000
53.560 108.000 1.000
53.570 131.000 1.000
53.580 115.000 1.000
53.590 120.000 1.000
53.600 123.000 1.000
53.610 110.000 1.000
53.620 116.000 1.000
53.630 120.000 1.000
53.640 119.000 1.000
53.650 111.000 1.000
53.660 106.000 1.000
53.670 101.000 1.000
53.680 107.000 1.000
53.690 109.000 1.000
53.700 112.000 1.000
53.710 115.000 1.000
53.720 117.000 1.000
53.730 115.000 1.000
53.740 114.000 1.000
53.750 95.000 1.000
53.760 111.000 1.000
53.770 123.000 1.000
53.780 114.000 1.000
53.790 106.000 1.000
53.800 120.000 1.000
53.810 120.000 1.000
53.820 114.000 1.000
53.830 111.000 1.000
53.840 125.000 1.000
53.850 123.000 1.000
53.860 124.000 1.000
53.870 120.000 1.000
53.880 108.000 1.000
53.890 107.000 1.000
53.900 109.000 1.000
53.910 118.000 1.000
53.920 114.000 1.000
53.930 120.000 1.000
53.940 107.000 1.000
53.950 121.000 1.000
53.960 122.000 1.000
53.970 122.000 1.000
53.980 111.000 1.000
53.990 114.000 1.000
54.000 114.000 1.000
54.010 120.000 1.000
54.020 134.000 1.000
54.030 114.000 1.000
54.040 114.000 1.000
54.050 111.000 1.000
54.060 107.000 1.000
54.070 113.000 1.000
54.080 118.000 1.000
54.090 118.000 1.000
54.100 115.000 1.000
54.110 104.000 1.000
54.120 116.000 1.000
54.130 108.000 1.000
54.140 105.000 1.000
54.150 105.000 1.000
54.160 117.000 1.000
54.170 101.000 1.000
54.180 113.000 1.000
54.190 115.000 1.000
54.200 109.000 1.000
54.210 107.000 1.000
54.220 116.000 1.000
54.230 118.000 1.000
54.240 117.000 1.000
54.250 126.000 1.000
54.260 112.000 1.000
54.270 104.000 1.000
54.280 106.000 1.000
54.290 126.000 1.000
54.300 122.000 1.000
54.310 120.000 1.000
54.320 111.000 1.000
54.330 128.000 1.000
54.340 122.000 1.000
54.350 119.000 1.000
54.360 129.000 1.000
54.370 126.000 1.000
54.380 115.000 1.000
54.390 108.000 1.000
54.400 119.000 1.000
54.410 122.000 1.000
54.420 106.000 1.000
54.430 116.000 1.000
54.440 120.000 1.000
54.450 110.000 1.000
54.460 110.000 1.000
54.470 115.000 1.000
54.480 121.000 1.000
54.490 131.000 1.000
54.500 131.000 1.000
54.510 123.000 1.000
54.520 110.000 1.000
54.530 102.000 1.000
54.540 105.000 1.000
54.550 114.000 1.000
54.560 121.000 1.000
54.570 98.000 1.000
54.580 118.000 1.000
54.590 119.000 1.000
54.600 97.000 1.000
54.610 106.000 1.000
54.620 116.000 1.000
54.630 105.000 1.000
54.640 101.000 1.000
54.650 109.000 1.000
54.660 115.000 1.000
54.670 106.000 1.000
54.680 106.000 1.000
54.690 100.000 1.000
54.700 99.000 1.000
54.710 104.000 1.000
54.720 105.000 1.000
54.730 101.000 1.000
54.740 93.000 1.000
54.750 112.000 1.000
54.760 115.000 1.000
54.770 103.000 1.000
54.780 116.000 1.000
54.790 108.000 1.000
54.800 112.000 1.000
54.810 120.000 1.000
54.820 123.000 1.000
54.830 124.000 1.000
54.840 105.000 1.000
54.850 109.000 1.000
54.860 111.000 1.000
54.870 103.000 1.000
54.880 93.000 1.000
54.890 104.000 1.000
54.900 110.000 1.000
54.910 110.000 1.000
54.920 117.000 1.000
54.930 122.000 1.000
54.940 112.000 1.000
54.950 109.000 1.000
54.960 102.000 1.000
54.970 103.000 1.000
54.980 123.000 1.000
54.990 109.000 1.000
55.000 107.000 1.000
*RAS_INT_END
*RAS_DATA_END
