*RAS_DATA_START
*RAS_HEADER_START
*CORR_POS_DB_NAME "Sample"
*CORR_POS_GONIO_RADIUS ""
*CORR_POS_NODE_INDEX01 ""
*CORR_POS_NODE_INDEX02 ""
*CORR_POS_NODE_INDEX03 ""
*CORR_POS_NODE_INDEX04 ""
*CORR_POS_NODE_INDEX05 ""
*CORR_POS_NODE_INDEX06 ""
*CORR_POS_NODE_INDEX07 ""
*CORR_POS_NODE_INDEX08 ""
*CORR_POS_NODE_INDEX09 ""
*CORR_POS_NODE_INDEX10 ""
*CORR_POS_NODE_INDEX11 ""
*CORR_POS_NODE_LABEL01 "Si(111)"
*CORR_POS_NODE_LABEL02 "Si(220)"
*CORR_POS_NODE_LABEL03 "Si(311)"
*CORR_POS_NODE_LABEL04 "Si(400)"
*CORR_POS_NODE_LABEL05 "Si(331)"
*CORR_POS_NODE_LABEL06 "Si(422)"
*CORR_POS_NODE_LABEL07 "Si(511)"
*CORR_POS_NODE_LABEL08 "Si(440)"
*CORR_POS_NODE_LABEL09 "Si(531)"
*CORR_POS_NODE_LABEL10 "Si(620)"
*CORR_POS_NODE_LABEL11 "Si(533)"
*CORR_POS_NODE_POS_CALC01 "28.377"
*CORR_POS_NODE_POS_CALC02 "47.2506"
*CORR_POS_NODE_POS_CALC03 "56.0725"
*CORR_POS_NODE_POS_CALC04 "69.0822"
*CORR_POS_NODE_POS_CALC05 "76.3294"
*CORR_POS_NODE_POS_CALC06 "87.9853"
*CORR_POS_NODE_POS_CALC07 "94.9091"
*CORR_POS_NODE_POS_CALC08 "106.668"
*CORR_POS_NODE_POS_CALC09 "114.054"
*CORR_POS_NODE_POS_CALC10 "127.511"
*CORR_POS_NODE_POS_CALC11 "136.864"
*CORR_POS_NODE_POS_MEAS01 "28.377"
*CORR_POS_NODE_POS_MEAS02 "47.2506"
*CORR_POS_NODE_POS_MEAS03 "56.0725"
*CORR_POS_NODE_POS_MEAS04 "69.0822"
*CORR_POS_NODE_POS_MEAS05 "76.3294"
*CORR_POS_NODE_POS_MEAS06 "87.9853"
*CORR_POS_NODE_POS_MEAS07 "94.9091"
*CORR_POS_NODE_POS_MEAS08 "106.668"
*CORR_POS_NODE_POS_MEAS09 "114.054"
*CORR_POS_NODE_POS_MEAS10 "127.511"
*CORR_POS_NODE_POS_MEAS11 "136.864"
*CORR_POS_OPT_ATTR "集中法"
*CORR_POS_PARAM_MU ""
*CORR_POS_PARAM_PL ""
*CORR_POS_SEMODEL_TYPE "0"
*CORR_POS_STANDARD_TYPE ""
*CORR_POS_VALUE_ANALYZER "None"
*CORR_POS_VALUE_CMONO "None"
*CORR_POS_VALUE_IMONO "None"
*CORR_POS_VALUE_IS "1.250deg"
*CORR_POS_VALUE_ISL "10.0mm"
*CORR_POS_VALUE_ISOLLER "5.0deg"
*CORR_POS_VALUE_RS1 "1.250deg"
*CORR_POS_VALUE_RS2 "0.3mm"
*CORR_POS_VALUE_RSOLLER "5.0deg"
*CORR_POS_XG_FOCUS_L ""
*CORR_POS_XG_WAVE_TYPE ""
*CORR_POS_XG_WAVE_VALUE ""
*DISP_FMT_X "%.2f"
*DISP_FMT_Y "%.0f"
*DISP_FULLSCALE "59580.0000000000"
*DISP_LINE_COLOR "255.0000000000"
*DISP_LINE_STYLE "0.0000000000"
*DISP_LINE_WIDTH "0.2500000000"
*DISP_NOTE "測定データ-1"
*DISP_OFFSET_Y "0.0000000000"
*DISP_PEAKSEARCH_UNIT_Y "CPS"
*DISP_RANGE_BOTTOM "0.0000000000"
*DISP_RANGE_LEFT "3.0000000000"
*DISP_RANGE_LOGCUTOFF "0.0100000000"
*DISP_RANGE_RIGHT "55.0000000000"
*DISP_RANGE_TOP "59580.0000000000"
*DISP_SCALE_MODE_Y "0.0000000000"
*DISP_TAB_NAME "2θ/θ"
*DISP_TITLE_Y "強度"
*DISP_UNIT_Y "CPS"
*DISP_WINDOW_NAME "MSG_MACROENGINE"
*FILE_COMMENT " "
*FILE_MD5 ""
*FILE_MEMO " "
*FILE_OPERATOR "Administrator"
*FILE_PART_ID "MEAS_PBEA_00223"
*FILE_SAMPLE " "
*FILE_TYPE "RAS_RAW"
*FILE_USERGROUP "システムマネージャ"
*FILE_VERSION "1.0000000000"
*HW_ATTACHMENT_ID "ATT1031"
*HW_ATTACHMENT_NAME "6サンプルチェンジャ|ASC-6"
*HW_COUNTER_ID-0 "CUT0025"
*HW_COUNTER_ID-1 "CUT0020"
*HW_COUNTER_ID-2 "CUT0020"
*HW_COUNTER_ID-3 "CMC0021"
*HW_COUNTER_NAME-0 "D/teX Ultra|D/teX Ultra"
*HW_COUNTER_NAME-1 "None|None"
*HW_COUNTER_NAME-2 "None|None"
*HW_COUNTER_NAME-3 "検出器モノクロメータ|Detector monochromator"
*HW_COUNTER_SELECT_NAME "D/teX Ultra|D/teX Ultra"
*HW_GONIOMETER_ID "GON0070"
*HW_GONIOMETER_NAME "MiniFlex 300/600|MiniFlex 300/600"
*HW_GONIOMETER_RADIUS-0 "79.0"
*HW_GONIOMETER_RADIUS-1 "91.5"
*HW_GONIOMETER_RADIUS-2 "150.0"
*HW_GONIOMETER_RADIUS-3 "0"
*HW_GONIOMETER_RADIUS-4 "103.4"
*HW_GONIOMETER_RADIUS-5 "150.0"
*HW_GONIOMETER_RADIUS-6 "46.6"
*HW_GONIOMETER_RADIUS-7 "160.0"
*HW_I_OPT_ID-0 "ISL0021"
*HW_I_OPT_ID-1 "ISO0021"
*HW_I_OPT_NAME-0 "発散スリット|Divergence slit"
*HW_I_OPT_NAME-1 "入射平行スリット|Incident parallel slit"
*HW_R_ATTENUATER_AUTOMODE "0"
*HW_R_OPT_ID-0 "RSS0021"
*HW_R_OPT_ID-1 "RSO0021"
*HW_R_OPT_ID-2 "RRS0021"
*HW_R_OPT_NAME-0 "散乱スリット|Scattering slit"
*HW_R_OPT_NAME-1 "受光平行スリット|Receiving soller slit"
*HW_R_OPT_NAME-2 "受光スリット|Receiving slit"
*HW_SAMPLE_HOLDER_ID "SMP0000"
*HW_SAMPLE_HOLDER_NAME "無し|None"
*HW_XG_CURRENT_MAX "15"
*HW_XG_CURRENT_MIN "2"
*HW_XG_CURRENT_RESOLUTION "1"
*HW_XG_CURRENT_UNIT "mA"
*HW_XG_FOCUS "1mm x 10mm"
*HW_XG_FOCUS_TYPE "Normal"
*HW_XG_ID "1060"
*HW_XG_NAME "300W/600W 封入管-B|300W/600W Sealed tube-B"
*HW_XG_TARGET_ATOMIC_NUMBER "29.0000000000"
*HW_XG_TARGET_NAME "Cu"
*HW_XG_TYPE "Hermetic"
*HW_XG_VOLTAGE_MAX "40"
*HW_XG_VOLTAGE_MIN "20"
*HW_XG_VOLTAGE_RESOLUTION "1"
*HW_XG_VOLTAGE_UNIT "kV"
*HW_XG_WATT_MAX "1"
*HW_XG_WATT_UNIT "kW"
*HW_XG_WAVE_LENGTH_ALPHA1 "1.540593"
*HW_XG_WAVE_LENGTH_ALPHA2 "1.544414"
*HW_XG_WAVE_LENGTH_BETA "1.392250"
*MEAS_COND_AXIS_NAME-0 "2θ/θ"
*MEAS_COND_AXIS_NAME-1 "試料回転"
*MEAS_COND_AXIS_NAME-2 "試料交換"
*MEAS_COND_AXIS_NAME-3 "Soller(inc.)"
*MEAS_COND_AXIS_NAME-4 "IHS"
*MEAS_COND_AXIS_NAME-5 "DS"
*MEAS_COND_AXIS_NAME-6 "SS"
*MEAS_COND_AXIS_NAME-7 "Soller(rec.)"
*MEAS_COND_AXIS_NAME-8 "RS"
*MEAS_COND_AXIS_NAME-9 "フィルター"
*MEAS_COND_AXIS_NAME-10 "モノクロメータ"
*MEAS_COND_AXIS_NAME-11 "PHA"
*MEAS_COND_AXIS_NAME_INTERNAL-0 "TwoThetaTheta"
*MEAS_COND_AXIS_NAME_INTERNAL-1 "Spin"
*MEAS_COND_AXIS_NAME_INTERNAL-2 "Change"
*MEAS_COND_AXIS_NAME_INTERNAL-3 "IncidentSollerSlit"
*MEAS_COND_AXIS_NAME_INTERNAL-4 "IncidentAxdSlit"
*MEAS_COND_AXIS_NAME_INTERNAL-5 "IncidentSlitBox"
*MEAS_COND_AXIS_NAME_INTERNAL-6 "ReceivingSlitBox1"
*MEAS_COND_AXIS_NAME_INTERNAL-7 "ReceivingSollerSlit"
*MEAS_COND_AXIS_NAME_INTERNAL-8 "ReceivingSlitBox2"
*MEAS_COND_AXIS_NAME_INTERNAL-9 "Filter"
*MEAS_COND_AXIS_NAME_INTERNAL-10 "CounterMonochromator"
*MEAS_COND_AXIS_NAME_INTERNAL-11 "PHA"
*MEAS_COND_AXIS_NAME_MAGICNO-0 "268632064.0000000000"
*MEAS_COND_AXIS_NAME_MAGICNO-1 "16842752.0000000000"
*MEAS_COND_AXIS_NAME_MAGICNO-2 "16842752.0000000000"
*MEAS_COND_AXIS_NAME_MAGICNO-3 "20971521.0000000000"
*MEAS_COND_AXIS_NAME_MAGICNO-4 "22020097.0000000000"
*MEAS_COND_AXIS_NAME_MAGICNO-5 "22020097.0000000000"
*MEAS_COND_AXIS_NAME_MAGICNO-6 "23068673.0000000000"
*MEAS_COND_AXIS_NAME_MAGICNO-7 "20971521.0000000000"
*MEAS_COND_AXIS_NAME_MAGICNO-8 "23068673.0000000000"
*MEAS_COND_AXIS_NAME_MAGICNO-9 "20971521.0000000000"
*MEAS_COND_AXIS_NAME_MAGICNO-10 "20971521.0000000000"
*MEAS_COND_AXIS_NAME_MAGICNO-11 "0.0000000000"
*MEAS_COND_AXIS_OFFSET-0 "0.0000000000"
*MEAS_COND_AXIS_OFFSET-1 "-"
*MEAS_COND_AXIS_OFFSET-2 "-"
*MEAS_COND_AXIS_OFFSET-3 "-"
*MEAS_COND_AXIS_OFFSET-4 "-"
*MEAS_COND_AXIS_OFFSET-5 "-"
*MEAS_COND_AXIS_OFFSET-6 "-"
*MEAS_COND_AXIS_OFFSET-7 "-"
*MEAS_COND_AXIS_OFFSET-8 "-"
*MEAS_COND_AXIS_OFFSET-9 "-"
*MEAS_COND_AXIS_OFFSET-10 "-"
*MEAS_COND_AXIS_OFFSET-11 "-"
*MEAS_COND_AXIS_POSITION-0 "10.0000000000"
*MEAS_COND_AXIS_POSITION-1 "0.0000000000"
*MEAS_COND_AXIS_POSITION-2 "4.0000000000"
*MEAS_COND_AXIS_POSITION-3 "2.5deg"
*MEAS_COND_AXIS_POSITION-4 "10.0mm"
*MEAS_COND_AXIS_POSITION-5 "1.250deg"
*MEAS_COND_AXIS_POSITION-6 "13.0mm(Open)"
*MEAS_COND_AXIS_POSITION-7 "2.5deg"
*MEAS_COND_AXIS_POSITION-8 "13.0mm"
*MEAS_COND_AXIS_POSITION-9 "K-beta(x1)"
*MEAS_COND_AXIS_POSITION-10 "None"
*MEAS_COND_AXIS_POSITION-11 "34.0000000000"
*MEAS_COND_AXIS_UNIT-0 "deg"
*MEAS_COND_AXIS_UNIT-1 ""
*MEAS_COND_AXIS_UNIT-2 ""
*MEAS_COND_AXIS_UNIT-3 ""
*MEAS_COND_AXIS_UNIT-4 ""
*MEAS_COND_AXIS_UNIT-5 ""
*MEAS_COND_AXIS_UNIT-6 ""
*MEAS_COND_AXIS_UNIT-7 ""
*MEAS_COND_AXIS_UNIT-8 ""
*MEAS_COND_AXIS_UNIT-9 ""
*MEAS_COND_AXIS_UNIT-10 ""
*MEAS_COND_AXIS_UNIT-11 "div"
*MEAS_COND_COUNTER_CNTLOSS_CORR "0.0000000000"
*MEAS_COND_COUNTER_PHABASE "34.0000000000"
*MEAS_COND_COUNTER_PHAWINDOW "14.0000000000"
*MEAS_COND_COUNTER_PHA_UNIT "div"
*MEAS_COND_COUNTER_TAUDIFF "0.2500000000"
*MEAS_COND_COUNTER_TAUINT "0.7500000000"
*MEAS_COND_IRRADIATION_MODE "OFF"
*MEAS_COND_IRRADIATION_WIDTH ""
*MEAS_COND_OPT_ATTR " "
*MEAS_COND_OPT_NAME ""
*MEAS_COND_UNSYMMETRIC_MODE "OFF"
*MEAS_COND_XG_CURRENT "15.0000000000"
*MEAS_COND_XG_VOLTAGE "40.0000000000"
*MEAS_COND_XG_WAVE_TYPE "Ka"
*MEAS_DATA_COUNT "5201.0000000000"
*MEAS_SCAN_AXIS_X "2θ/θ"
*MEAS_SCAN_AXIS_X_INTERNAL "TwoThetaTheta"
*MEAS_SCAN_END_TIME "11/22/23 15:11:09"
*MEAS_SCAN_MODE "CONTINUOUS"
*MEAS_SCAN_MONITOR "0"
*MEAS_SCAN_RESOLUTION_X "0.005"
*MEAS_SCAN_SPEED "10.000"
*MEAS_SCAN_SPEED_UNIT "deg/min"
*MEAS_SCAN_SPEED_USER "10.000"
*MEAS_SCAN_START "3.0000000000"
*MEAS_SCAN_START_TIME "11/22/23 15:05:13"
*MEAS_SCAN_STEP "0.0100000000"
*MEAS_SCAN_STOP "55.0000000000"
*MEAS_SCAN_UNIT_X "deg"
*MEAS_SCAN_UNIT_Y "counts"
*SLIT_SYSTEM "0"
*RAS_HEADER_END
*RAS_INT_START
3.000 76.000 1.000
3.010 83.000 1.000
3.020 88.000 1.000
3.030 93.000 1.000
3.040 93.000 1.000
3.050 100.000 1.000
3.060 103.000 1.000
3.070 100.000 1.000
3.080 88.000 1.000
3.090 87.000 1.000
3.100 87.000 1.000
3.110 75.000 1.000
3.120 74.000 1.000
3.130 81.000 1.000
3.140 92.000 1.000
3.150 95.000 1.000
3.160 100.000 1.000
3.170 106.000 1.000
3.180 104.000 1.000
3.190 100.000 1.000
3.200 98.000 1.000
3.210 83.000 1.000
3.220 92.000 1.000
3.230 100.000 1.000
3.240 100.000 1.000
3.250 110.000 1.000
3.260 100.000 1.000
3.270 93.000 1.000
3.280 106.000 1.000
3.290 95.000 1.000
3.300 114.000 1.000
3.310 106.000 1.000
3.320 118.000 1.000
3.330 119.000 1.000
3.340 109.000 1.000
3.350 120.000 1.000
3.360 106.000 1.000
3.370 112.000 1.000
3.380 102.000 1.000
3.390 84.000 1.000
3.400 97.000 1.000
3.410 90.000 1.000
3.420 105.000 1.000
3.430 107.000 1.000
3.440 95.000 1.000
3.450 91.000 1.000
3.460 97.000 1.000
3.470 105.000 1.000
3.480 106.000 1.000
3.490 104.000 1.000
3.500 97.000 1.000
3.510 89.000 1.000
3.520 93.000 1.000
3.530 75.000 1.000
3.540 71.000 1.000
3.550 75.000 1.000
3.560 75.000 1.000
3.570 70.000 1.000
3.580 89.000 1.000
3.590 77.000 1.000
3.600 74.000 1.000
3.610 77.000 1.000
3.620 76.000 1.000
3.630 85.000 1.000
3.640 78.000 1.000
3.650 83.000 1.000
3.660 86.000 1.000
3.670 87.000 1.000
3.680 80.000 1.000
3.690 71.000 1.000
3.700 73.000 1.000
3.710 74.000 1.000
3.720 68.000 1.000
3.730 76.000 1.000
3.740 84.000 1.000
3.750 88.000 1.000
3.760 78.000 1.000
3.770 87.000 1.000
3.780 71.000 1.000
3.790 67.000 1.000
3.800 77.000 1.000
3.810 91.000 1.000
3.820 86.000 1.000
3.830 73.000 1.000
3.840 80.000 1.000
3.850 90.000 1.000
3.860 83.000 1.000
3.870 78.000 1.000
3.880 87.000 1.000
3.890 82.000 1.000
3.900 76.000 1.000
3.910 72.000 1.000
3.920 73.000 1.000
3.930 90.000 1.000
3.940 93.000 1.000
3.950 73.000 1.000
3.960 77.000 1.000
3.970 71.000 1.000
3.980 68.000 1.000
3.990 77.000 1.000
4.000 80.000 1.000
4.010 77.000 1.000
4.020 86.000 1.000
4.030 72.000 1.000
4.040 77.000 1.000
4.050 68.000 1.000
4.060 61.000 1.000
4.070 70.000 1.000
4.080 81.000 1.000
4.090 70.000 1.000
4.100 70.000 1.000
4.110 80.000 1.000
4.120 89.000 1.000
4.130 81.000 1.000
4.140 74.000 1.000
4.150 83.000 1.000
4.160 82.000 1.000
4.170 71.000 1.000
4.180 74.000 1.000
4.190 70.000 1.000
4.200 63.000 1.000
4.210 57.000 1.000
4.220 65.000 1.000
4.230 81.000 1.000
4.240 69.000 1.000
4.250 75.000 1.000
4.260 73.000 1.000
4.270 72.000 1.000
4.280 71.000 1.000
4.290 67.000 1.000
4.300 57.000 1.000
4.310 69.000 1.000
4.320 78.000 1.000
4.330 75.000 1.000
4.340 67.000 1.000
4.350 63.000 1.000
4.360 54.000 1.000
4.370 53.000 1.000
4.380 55.000 1.000
4.390 70.000 1.000
4.400 66.000 1.000
4.410 56.000 1.000
4.420 63.000 1.000
4.430 75.000 1.000
4.440 66.000 1.000
4.450 63.000 1.000
4.460 67.000 1.000
4.470 67.000 1.000
4.480 66.000 1.000
4.490 63.000 1.000
4.500 64.000 1.000
4.510 57.000 1.000
4.520 66.000 1.000
4.530 66.000 1.000
4.540 59.000 1.000
4.550 71.000 1.000
4.560 63.000 1.000
4.570 59.000 1.000
4.580 54.000 1.000
4.590 53.000 1.000
4.600 66.000 1.000
4.610 57.000 1.000
4.620 67.000 1.000
4.630 66.000 1.000
4.640 62.000 1.000
4.650 68.000 1.000
4.660 68.000 1.000
4.670 67.000 1.000
4.680 76.000 1.000
4.690 71.000 1.000
4.700 64.000 1.000
4.710 65.000 1.000
4.720 60.000 1.000
4.730 61.000 1.000
4.740 60.000 1.000
4.750 65.000 1.000
4.760 68.000 1.000
4.770 65.000 1.000
4.780 55.000 1.000
4.790 56.000 1.000
4.800 59.000 1.000
4.810 56.000 1.000
4.820 68.000 1.000
4.830 66.000 1.000
4.840 61.000 1.000
4.850 69.000 1.000
4.860 74.000 1.000
4.870 66.000 1.000
4.880 51.000 1.000
4.890 56.000 1.000
4.900 58.000 1.000
4.910 60.000 1.000
4.920 71.000 1.000
4.930 73.000 1.000
4.940 68.000 1.000
4.950 69.000 1.000
4.960 72.000 1.000
4.970 72.000 1.000
4.980 80.000 1.000
4.990 67.000 1.000
5.000 74.000 1.000
5.010 73.000 1.000
5.020 73.000 1.000
5.030 63.000 1.000
5.040 64.000 1.000
5.050 66.000 1.000
5.060 63.000 1.000
5.070 53.000 1.000
5.080 54.000 1.000
5.090 61.000 1.000
5.100 78.000 1.000
5.110 68.000 1.000
5.120 68.000 1.000
5.130 72.000 1.000
5.140 80.000 1.000
5.150 76.000 1.000
5.160 79.000 1.000
5.170 75.000 1.000
5.180 66.000 1.000
5.190 64.000 1.000
5.200 72.000 1.000
5.210 72.000 1.000
5.220 65.000 1.000
5.230 69.000 1.000
5.240 73.000 1.000
5.250 78.000 1.000
5.260 69.000 1.000
5.270 76.000 1.000
5.280 82.000 1.000
5.290 69.000 1.000
5.300 65.000 1.000
5.310 68.000 1.000
5.320 68.000 1.000
5.330 75.000 1.000
5.340 75.000 1.000
5.350 72.000 1.000
5.360 80.000 1.000
5.370 69.000 1.000
5.380 65.000 1.000
5.390 72.000 1.000
5.400 67.000 1.000
5.410 70.000 1.000
5.420 72.000 1.000
5.430 62.000 1.000
5.440 63.000 1.000
5.450 70.000 1.000
5.460 70.000 1.000
5.470 52.000 1.000
5.480 63.000 1.000
5.490 65.000 1.000
5.500 62.000 1.000
5.510 55.000 1.000
5.520 73.000 1.000
5.530 82.000 1.000
5.540 68.000 1.000
5.550 54.000 1.000
5.560 53.000 1.000
5.570 65.000 1.000
5.580 67.000 1.000
5.590 72.000 1.000
5.600 70.000 1.000
5.610 64.000 1.000
5.620 59.000 1.000
5.630 57.000 1.000
5.640 58.000 1.000
5.650 68.000 1.000
5.660 67.000 1.000
5.670 76.000 1.000
5.680 69.000 1.000
5.690 66.000 1.000
5.700 69.000 1.000
5.710 70.000 1.000
5.720 60.000 1.000
5.730 51.000 1.000
5.740 46.000 1.000
5.750 54.000 1.000
5.760 56.000 1.000
5.770 54.000 1.000
5.780 59.000 1.000
5.790 67.000 1.000
5.800 59.000 1.000
5.810 65.000 1.000
5.820 67.000 1.000
5.830 64.000 1.000
5.840 65.000 1.000
5.850 57.000 1.000
5.860 65.000 1.000
5.870 67.000 1.000
5.880 59.000 1.000
5.890 63.000 1.000
5.900 54.000 1.000
5.910 64.000 1.000
5.920 65.000 1.000
5.930 71.000 1.000
5.940 71.000 1.000
5.950 68.000 1.000
5.960 61.000 1.000
5.970 60.000 1.000
5.980 70.000 1.000
5.990 67.000 1.000
6.000 62.000 1.000
6.010 62.000 1.000
6.020 59.000 1.000
6.030 55.000 1.000
6.040 57.000 1.000
6.050 59.000 1.000
6.060 62.000 1.000
6.070 62.000 1.000
6.080 59.000 1.000
6.090 52.000 1.000
6.100 54.000 1.000
6.110 59.000 1.000
6.120 63.000 1.000
6.130 59.000 1.000
6.140 57.000 1.000
6.150 50.000 1.000
6.160 58.000 1.000
6.170 58.000 1.000
6.180 58.000 1.000
6.190 59.000 1.000
6.200 59.000 1.000
6.210 55.000 1.000
6.220 60.000 1.000
6.230 52.000 1.000
6.240 56.000 1.000
6.250 66.000 1.000
6.260 57.000 1.000
6.270 67.000 1.000
6.280 76.000 1.000
6.290 76.000 1.000
6.300 58.000 1.000
6.310 57.000 1.000
6.320 66.000 1.000
6.330 66.000 1.000
6.340 68.000 1.000
6.350 66.000 1.000
6.360 57.000 1.000
6.370 67.000 1.000
6.380 74.000 1.000
6.390 58.000 1.000
6.400 58.000 1.000
6.410 68.000 1.000
6.420 64.000 1.000
6.430 68.000 1.000
6.440 63.000 1.000
6.450 59.000 1.000
6.460 64.000 1.000
6.470 73.000 1.000
6.480 71.000 1.000
6.490 68.000 1.000
6.500 56.000 1.000
6.510 55.000 1.000
6.520 60.000 1.000
6.530 58.000 1.000
6.540 61.000 1.000
6.550 69.000 1.000
6.560 71.000 1.000
6.570 65.000 1.000
6.580 60.000 1.000
6.590 58.000 1.000
6.600 69.000 1.000
6.610 72.000 1.000
6.620 61.000 1.000
6.630 66.000 1.000
6.640 61.000 1.000
6.650 62.000 1.000
6.660 62.000 1.000
6.670 64.000 1.000
6.680 72.000 1.000
6.690 66.000 1.000
6.700 64.000 1.000
6.710 53.000 1.000
6.720 60.000 1.000
6.730 60.000 1.000
6.740 65.000 1.000
6.750 69.000 1.000
6.760 60.000 1.000
6.770 59.000 1.000
6.780 60.000 1.000
6.790 55.000 1.000
6.800 61.000 1.000
6.810 67.000 1.000
6.820 60.000 1.000
6.830 63.000 1.000
6.840 64.000 1.000
6.850 71.000 1.000
6.860 63.000 1.000
6.870 71.000 1.000
6.880 73.000 1.000
6.890 72.000 1.000
6.900 70.000 1.000
6.910 60.000 1.000
6.920 68.000 1.000
6.930 71.000 1.000
6.940 51.000 1.000
6.950 58.000 1.000
6.960 62.000 1.000
6.970 70.000 1.000
6.980 72.000 1.000
6.990 72.000 1.000
7.000 66.000 1.000
7.010 61.000 1.000
7.020 65.000 1.000
7.030 58.000 1.000
7.040 64.000 1.000
7.050 78.000 1.000
7.060 78.000 1.000
7.070 70.000 1.000
7.080 66.000 1.000
7.090 77.000 1.000
7.100 76.000 1.000
7.110 65.000 1.000
7.120 67.000 1.000
7.130 69.000 1.000
7.140 78.000 1.000
7.150 75.000 1.000
7.160 72.000 1.000
7.170 91.000 1.000
7.180 85.000 1.000
7.190 85.000 1.000
7.200 86.000 1.000
7.210 93.000 1.000
7.220 81.000 1.000
7.230 65.000 1.000
7.240 64.000 1.000
7.250 64.000 1.000
7.260 68.000 1.000
7.270 73.000 1.000
7.280 78.000 1.000
7.290 65.000 1.000
7.300 90.000 1.000
7.310 78.000 1.000
7.320 77.000 1.000
7.330 70.000 1.000
7.340 67.000 1.000
7.350 74.000 1.000
7.360 72.000 1.000
7.370 81.000 1.000
7.380 81.000 1.000
7.390 70.000 1.000
7.400 70.000 1.000
7.410 75.000 1.000
7.420 76.000 1.000
7.430 75.000 1.000
7.440 75.000 1.000
7.450 73.000 1.000
7.460 65.000 1.000
7.470 67.000 1.000
7.480 74.000 1.000
7.490 65.000 1.000
7.500 72.000 1.000
7.510 77.000 1.000
7.520 85.000 1.000
7.530 88.000 1.000
7.540 82.000 1.000
7.550 89.000 1.000
7.560 83.000 1.000
7.570 91.000 1.000
7.580 93.000 1.000
7.590 92.000 1.000
7.600 85.000 1.000
7.610 95.000 1.000
7.620 107.000 1.000
7.630 105.000 1.000
7.640 104.000 1.000
7.650 103.000 1.000
7.660 116.000 1.000
7.670 123.000 1.000
7.680 116.000 1.000
7.690 133.000 1.000
7.700 134.000 1.000
7.710 138.000 1.000
7.720 146.000 1.000
7.730 154.000 1.000
7.740 166.000 1.000
7.750 179.000 1.000
7.760 188.000 1.000
7.770 203.000 1.000
7.780 230.000 1.000
7.790 257.000 1.000
7.800 282.000 1.000
7.810 315.000 1.000
7.820 347.000 1.000
7.830 408.000 1.000
7.840 440.000 1.000
7.850 481.000 1.000
7.860 545.000 1.000
7.870 616.000 1.000
7.880 702.000 1.000
7.890 813.000 1.000
7.900 950.000 1.000
7.910 1063.000 1.000
7.920 1165.000 1.000
7.930 1341.000 1.000
7.940 1468.000 1.000
7.950 1539.000 1.000
7.960 1677.000 1.000
7.970 1761.000 1.000
7.980 1805.000 1.000
7.990 1786.000 1.000
8.000 1702.000 1.000
8.010 1507.000 1.000
8.020 1310.000 1.000
8.030 1058.000 1.000
8.040 832.000 1.000
8.050 586.000 1.000
8.060 452.000 1.000
8.070 373.000 1.000
8.080 296.000 1.000
8.090 251.000 1.000
8.100 223.000 1.000
8.110 197.000 1.000
8.120 188.000 1.000
8.130 173.000 1.000
8.140 154.000 1.000
8.150 148.000 1.000
8.160 145.000 1.000
8.170 145.000 1.000
8.180 139.000 1.000
8.190 151.000 1.000
8.200 146.000 1.000
8.210 147.000 1.000
8.220 139.000 1.000
8.230 122.000 1.000
8.240 143.000 1.000
8.250 131.000 1.000
8.260 117.000 1.000
8.270 115.000 1.000
8.280 131.000 1.000
8.290 137.000 1.000
8.300 124.000 1.000
8.310 102.000 1.000
8.320 90.000 1.000
8.330 96.000 1.000
8.340 99.000 1.000
8.350 96.000 1.000
8.360 94.000 1.000
8.370 100.000 1.000
8.380 92.000 1.000
8.390 112.000 1.000
8.400 96.000 1.000
8.410 89.000 1.000
8.420 106.000 1.000
8.430 117.000 1.000
8.440 124.000 1.000
8.450 111.000 1.000
8.460 113.000 1.000
8.470 114.000 1.000
8.480 115.000 1.000
8.490 107.000 1.000
8.500 102.000 1.000
8.510 91.000 1.000
8.520 94.000 1.000
8.530 107.000 1.000
8.540 113.000 1.000
8.550 115.000 1.000
8.560 95.000 1.000
8.570 89.000 1.000
8.580 107.000 1.000
8.590 106.000 1.000
8.600 102.000 1.000
8.610 109.000 1.000
8.620 102.000 1.000
8.630 104.000 1.000
8.640 105.000 1.000
8.650 96.000 1.000
8.660 106.000 1.000
8.670 106.000 1.000
8.680 103.000 1.000
8.690 97.000 1.000
8.700 101.000 1.000
8.710 102.000 1.000
8.720 100.000 1.000
8.730 98.000 1.000
8.740 102.000 1.000
8.750 88.000 1.000
8.760 83.000 1.000
8.770 99.000 1.000
8.780 98.000 1.000
8.790 93.000 1.000
8.800 103.000 1.000
8.810 99.000 1.000
8.820 91.000 1.000
8.830 81.000 1.000
8.840 84.000 1.000
8.850 91.000 1.000
8.860 93.000 1.000
8.870 102.000 1.000
8.880 99.000 1.000
8.890 102.000 1.000
8.900 100.000 1.000
8.910 89.000 1.000
8.920 97.000 1.000
8.930 98.000 1.000
8.940 98.000 1.000
8.950 105.000 1.000
8.960 110.000 1.000
8.970 92.000 1.000
8.980 92.000 1.000
8.990 102.000 1.000
9.000 121.000 1.000
9.010 107.000 1.000
9.020 98.000 1.000
9.030 97.000 1.000
9.040 93.000 1.000
9.050 87.000 1.000
9.060 105.000 1.000
9.070 110.000 1.000
9.080 116.000 1.000
9.090 116.000 1.000
9.100 101.000 1.000
9.110 104.000 1.000
9.120 104.000 1.000
9.130 109.000 1.000
9.140 115.000 1.000
9.150 99.000 1.000
9.160 93.000 1.000
9.170 98.000 1.000
9.180 100.000 1.000
9.190 96.000 1.000
9.200 96.000 1.000
9.210 95.000 1.000
9.220 109.000 1.000
9.230 93.000 1.000
9.240 94.000 1.000
9.250 104.000 1.000
9.260 96.000 1.000
9.270 97.000 1.000
9.280 92.000 1.000
9.290 93.000 1.000
9.300 109.000 1.000
9.310 94.000 1.000
9.320 84.000 1.000
9.330 90.000 1.000
9.340 91.000 1.000
9.350 80.000 1.000
9.360 94.000 1.000
9.370 101.000 1.000
9.380 107.000 1.000
9.390 93.000 1.000
9.400 82.000 1.000
9.410 100.000 1.000
9.420 102.000 1.000
9.430 100.000 1.000
9.440 104.000 1.000
9.450 97.000 1.000
9.460 91.000 1.000
9.470 96.000 1.000
9.480 94.000 1.000
9.490 96.000 1.000
9.500 107.000 1.000
9.510 98.000 1.000
9.520 97.000 1.000
9.530 102.000 1.000
9.540 107.000 1.000
9.550 100.000 1.000
9.560 103.000 1.000
9.570 106.000 1.000
9.580 94.000 1.000
9.590 107.000 1.000
9.600 110.000 1.000
9.610 103.000 1.000
9.620 112.000 1.000
9.630 101.000 1.000
9.640 113.000 1.000
9.650 116.000 1.000
9.660 108.000 1.000
9.670 97.000 1.000
9.680 99.000 1.000
9.690 110.000 1.000
9.700 114.000 1.000
9.710 93.000 1.000
9.720 98.000 1.000
9.730 100.000 1.000
9.740 95.000 1.000
9.750 93.000 1.000
9.760 103.000 1.000
9.770 102.000 1.000
9.780 98.000 1.000
9.790 96.000 1.000
9.800 98.000 1.000
9.810 100.000 1.000
9.820 92.000 1.000
9.830 91.000 1.000
9.840 94.000 1.000
9.850 81.000 1.000
9.860 94.000 1.000
9.870 108.000 1.000
9.880 102.000 1.000
9.890 92.000 1.000
9.900 99.000 1.000
9.910 95.000 1.000
9.920 105.000 1.000
9.930 98.000 1.000
9.940 106.000 1.000
9.950 109.000 1.000
9.960 101.000 1.000
9.970 93.000 1.000
9.980 95.000 1.000
9.990 105.000 1.000
10.000 103.000 1.000
10.010 102.000 1.000
10.020 101.000 1.000
10.030 92.000 1.000
10.040 99.000 1.000
10.050 100.000 1.000
10.060 96.000 1.000
10.070 111.000 1.000
10.080 110.000 1.000
10.090 93.000 1.000
10.100 98.000 1.000
10.110 86.000 1.000
10.120 102.000 1.000
10.130 93.000 1.000
10.140 99.000 1.000
10.150 97.000 1.000
10.160 101.000 1.000
10.170 100.000 1.000
10.180 102.000 1.000
10.190 100.000 1.000
10.200 102.000 1.000
10.210 94.000 1.000
10.220 92.000 1.000
10.230 98.000 1.000
10.240 99.000 1.000
10.250 94.000 1.000
10.260 98.000 1.000
10.270 110.000 1.000
10.280 105.000 1.000
10.290 102.000 1.000
10.300 103.000 1.000
10.310 101.000 1.000
10.320 101.000 1.000
10.330 106.000 1.000
10.340 109.000 1.000
10.350 104.000 1.000
10.360 102.000 1.000
10.370 104.000 1.000
10.380 103.000 1.000
10.390 97.000 1.000
10.400 98.000 1.000
10.410 103.000 1.000
10.420 110.000 1.000
10.430 120.000 1.000
10.440 100.000 1.000
10.450 100.000 1.000
10.460 106.000 1.000
10.470 104.000 1.000
10.480 100.000 1.000
10.490 107.000 1.000
10.500 109.000 1.000
10.510 105.000 1.000
10.520 108.000 1.000
10.530 116.000 1.000
10.540 117.000 1.000
10.550 118.000 1.000
10.560 124.000 1.000
10.570 130.000 1.000
10.580 128.000 1.000
10.590 112.000 1.000
10.600 117.000 1.000
10.610 122.000 1.000
10.620 130.000 1.000
10.630 140.000 1.000
10.640 136.000 1.000
10.650 148.000 1.000
10.660 151.000 1.000
10.670 142.000 1.000
10.680 149.000 1.000
10.690 154.000 1.000
10.700 158.000 1.000
10.710 158.000 1.000
10.720 178.000 1.000
10.730 186.000 1.000
10.740 163.000 1.000
10.750 183.000 1.000
10.760 199.000 1.000
10.770 220.000 1.000
10.780 234.000 1.000
10.790 258.000 1.000
10.800 264.000 1.000
10.810 251.000 1.000
10.820 257.000 1.000
10.830 283.000 1.000
10.840 287.000 1.000
10.850 280.000 1.000
10.860 291.000 1.000
10.870 259.000 1.000
10.880 229.000 1.000
10.890 219.000 1.000
10.900 226.000 1.000
10.910 231.000 1.000
10.920 205.000 1.000
10.930 192.000 1.000
10.940 197.000 1.000
10.950 200.000 1.000
10.960 196.000 1.000
10.970 202.000 1.000
10.980 204.000 1.000
10.990 195.000 1.000
11.000 219.000 1.000
11.010 228.000 1.000
11.020 243.000 1.000
11.030 244.000 1.000
11.040 258.000 1.000
11.050 272.000 1.000
11.060 275.000 1.000
11.070 291.000 1.000
11.080 322.000 1.000
11.090 364.000 1.000
11.100 395.000 1.000
11.110 392.000 1.000
11.120 438.000 1.000
11.130 458.000 1.000
11.140 477.000 1.000
11.150 522.000 1.000
11.160 601.000 1.000
11.170 671.000 1.000
11.180 736.000 1.000
11.190 744.000 1.000
11.200 831.000 1.000
11.210 887.000 1.000
11.220 967.000 1.000
11.230 1064.000 1.000
11.240 1120.000 1.000
11.250 1110.000 1.000
11.260 1152.000 1.000
11.270 1190.000 1.000
11.280 1245.000 1.000
11.290 1230.000 1.000
11.300 1189.000 1.000
11.310 1113.000 1.000
11.320 1085.000 1.000
11.330 997.000 1.000
11.340 952.000 1.000
11.350 849.000 1.000
11.360 701.000 1.000
11.370 655.000 1.000
11.380 581.000 1.000
11.390 524.000 1.000
11.400 474.000 1.000
11.410 456.000 1.000
11.420 431.000 1.000
11.430 372.000 1.000
11.440 347.000 1.000
11.450 317.000 1.000
11.460 308.000 1.000
11.470 300.000 1.000
11.480 288.000 1.000
11.490 263.000 1.000
11.500 280.000 1.000
11.510 268.000 1.000
11.520 215.000 1.000
11.530 187.000 1.000
11.540 208.000 1.000
11.550 188.000 1.000
11.560 191.000 1.000
11.570 196.000 1.000
11.580 169.000 1.000
11.590 166.000 1.000
11.600 166.000 1.000
11.610 170.000 1.000
11.620 168.000 1.000
11.630 173.000 1.000
11.640 169.000 1.000
11.650 161.000 1.000
11.660 158.000 1.000
11.670 165.000 1.000
11.680 170.000 1.000
11.690 150.000 1.000
11.700 155.000 1.000
11.710 156.000 1.000
11.720 163.000 1.000
11.730 148.000 1.000
11.740 131.000 1.000
11.750 152.000 1.000
11.760 149.000 1.000
11.770 147.000 1.000
11.780 146.000 1.000
11.790 147.000 1.000
11.800 121.000 1.000
11.810 149.000 1.000
11.820 124.000 1.000
11.830 115.000 1.000
11.840 126.000 1.000
11.850 124.000 1.000
11.860 126.000 1.000
11.870 130.000 1.000
11.880 131.000 1.000
11.890 124.000 1.000
11.900 127.000 1.000
11.910 129.000 1.000
11.920 140.000 1.000
11.930 136.000 1.000
11.940 120.000 1.000
11.950 124.000 1.000
11.960 127.000 1.000
11.970 135.000 1.000
11.980 138.000 1.000
11.990 134.000 1.000
12.000 141.000 1.000
12.010 125.000 1.000
12.020 128.000 1.000
12.030 143.000 1.000
12.040 152.000 1.000
12.050 128.000 1.000
12.060 129.000 1.000
12.070 156.000 1.000
12.080 148.000 1.000
12.090 135.000 1.000
12.100 136.000 1.000
12.110 138.000 1.000
12.120 133.000 1.000
12.130 146.000 1.000
12.140 142.000 1.000
12.150 148.000 1.000
12.160 141.000 1.000
12.170 120.000 1.000
12.180 124.000 1.000
12.190 139.000 1.000
12.200 136.000 1.000
12.210 131.000 1.000
12.220 125.000 1.000
12.230 136.000 1.000
12.240 140.000 1.000
12.250 114.000 1.000
12.260 136.000 1.000
12.270 122.000 1.000
12.280 124.000 1.000
12.290 128.000 1.000
12.300 135.000 1.000
12.310 142.000 1.000
12.320 135.000 1.000
12.330 133.000 1.000
12.340 128.000 1.000
12.350 133.000 1.000
12.360 138.000 1.000
12.370 132.000 1.000
12.380 129.000 1.000
12.390 130.000 1.000
12.400 129.000 1.000
12.410 122.000 1.000
12.420 129.000 1.000
12.430 132.000 1.000
12.440 133.000 1.000
12.450 125.000 1.000
12.460 140.000 1.000
12.470 132.000 1.000
12.480 134.000 1.000
12.490 142.000 1.000
12.500 135.000 1.000
12.510 143.000 1.000
12.520 125.000 1.000
12.530 118.000 1.000
12.540 127.000 1.000
12.550 133.000 1.000
12.560 137.000 1.000
12.570 120.000 1.000
12.580 122.000 1.000
12.590 125.000 1.000
12.600 136.000 1.000
12.610 137.000 1.000
12.620 122.000 1.000
12.630 117.000 1.000
12.640 117.000 1.000
12.650 120.000 1.000
12.660 141.000 1.000
12.670 107.000 1.000
12.680 108.000 1.000
12.690 117.000 1.000
12.700 120.000 1.000
12.710 115.000 1.000
12.720 123.000 1.000
12.730 118.000 1.000
12.740 113.000 1.000
12.750 122.000 1.000
12.760 122.000 1.000
12.770 121.000 1.000
12.780 126.000 1.000
12.790 126.000 1.000
12.800 122.000 1.000
12.810 134.000 1.000
12.820 140.000 1.000
12.830 132.000 1.000
12.840 129.000 1.000
12.850 130.000 1.000
12.860 127.000 1.000
12.870 146.000 1.000
12.880 132.000 1.000
12.890 122.000 1.000
12.900 125.000 1.000
12.910 127.000 1.000
12.920 126.000 1.000
12.930 118.000 1.000
12.940 121.000 1.000
12.950 132.000 1.000
12.960 141.000 1.000
12.970 142.000 1.000
12.980 130.000 1.000
12.990 127.000 1.000
13.000 124.000 1.000
13.010 127.000 1.000
13.020 135.000 1.000
13.030 133.000 1.000
13.040 131.000 1.000
13.050 119.000 1.000
13.060 144.000 1.000
13.070 153.000 1.000
13.080 150.000 1.000
13.090 142.000 1.000
13.100 142.000 1.000
13.110 135.000 1.000
13.120 147.000 1.000
13.130 159.000 1.000
13.140 158.000 1.000
13.150 152.000 1.000
13.160 158.000 1.000
13.170 152.000 1.000
13.180 159.000 1.000
13.190 163.000 1.000
13.200 175.000 1.000
13.210 186.000 1.000
13.220 178.000 1.000
13.230 176.000 1.000
13.240 182.000 1.000
13.250 185.000 1.000
13.260 195.000 1.000
13.270 194.000 1.000
13.280 190.000 1.000
13.290 204.000 1.000
13.300 204.000 1.000
13.310 194.000 1.000
13.320 210.000 1.000
13.330 231.000 1.000
13.340 246.000 1.000
13.350 242.000 1.000
13.360 266.000 1.000
13.370 289.000 1.000
13.380 321.000 1.000
13.390 331.000 1.000
13.400 335.000 1.000
13.410 378.000 1.000
13.420 367.000 1.000
13.430 376.000 1.000
13.440 399.000 1.000
13.450 418.000 1.000
13.460 451.000 1.000
13.470 466.000 1.000
13.480 456.000 1.000
13.490 464.000 1.000
13.500 474.000 1.000
13.510 462.000 1.000
13.520 431.000 1.000
13.530 433.000 1.000
13.540 421.000 1.000
13.550 397.000 1.000
13.560 414.000 1.000
13.570 400.000 1.000
13.580 370.000 1.000
13.590 345.000 1.000
13.600 338.000 1.000
13.610 309.000 1.000
13.620 272.000 1.000
13.630 252.000 1.000
13.640 237.000 1.000
13.650 230.000 1.000
13.660 226.000 1.000
13.670 218.000 1.000
13.680 200.000 1.000
13.690 196.000 1.000
13.700 186.000 1.000
13.710 182.000 1.000
13.720 176.000 1.000
13.730 171.000 1.000
13.740 187.000 1.000
13.750 170.000 1.000
13.760 164.000 1.000
13.770 172.000 1.000
13.780 178.000 1.000
13.790 161.000 1.000
13.800 167.000 1.000
13.810 158.000 1.000
13.820 158.000 1.000
13.830 165.000 1.000
13.840 150.000 1.000
13.850 151.000 1.000
13.860 165.000 1.000
13.870 162.000 1.000
13.880 147.000 1.000
13.890 144.000 1.000
13.900 146.000 1.000
13.910 159.000 1.000
13.920 177.000 1.000
13.930 164.000 1.000
13.940 166.000 1.000
13.950 161.000 1.000
13.960 167.000 1.000
13.970 161.000 1.000
13.980 166.000 1.000
13.990 163.000 1.000
14.000 129.000 1.000
14.010 135.000 1.000
14.020 155.000 1.000
14.030 156.000 1.000
14.040 161.000 1.000
14.050 161.000 1.000
14.060 158.000 1.000
14.070 148.000 1.000
14.080 145.000 1.000
14.090 152.000 1.000
14.100 152.000 1.000
14.110 158.000 1.000
14.120 165.000 1.000
14.130 160.000 1.000
14.140 152.000 1.000
14.150 156.000 1.000
14.160 156.000 1.000
14.170 155.000 1.000
14.180 162.000 1.000
14.190 161.000 1.000
14.200 171.000 1.000
14.210 157.000 1.000
14.220 152.000 1.000
14.230 142.000 1.000
14.240 139.000 1.000
14.250 151.000 1.000
14.260 152.000 1.000
14.270 145.000 1.000
14.280 154.000 1.000
14.290 168.000 1.000
14.300 176.000 1.000
14.310 161.000 1.000
14.320 162.000 1.000
14.330 155.000 1.000
14.340 149.000 1.000
14.350 162.000 1.000
14.360 168.000 1.000
14.370 167.000 1.000
14.380 177.000 1.000
14.390 165.000 1.000
14.400 171.000 1.000
14.410 162.000 1.000
14.420 152.000 1.000
14.430 162.000 1.000
14.440 176.000 1.000
14.450 155.000 1.000
14.460 156.000 1.000
14.470 170.000 1.000
14.480 165.000 1.000
14.490 167.000 1.000
14.500 164.000 1.000
14.510 169.000 1.000
14.520 169.000 1.000
14.530 152.000 1.000
14.540 155.000 1.000
14.550 164.000 1.000
14.560 171.000 1.000
14.570 157.000 1.000
14.580 163.000 1.000
14.590 138.000 1.000
14.600 151.000 1.000
14.610 158.000 1.000
14.620 169.000 1.000
14.630 178.000 1.000
14.640 157.000 1.000
14.650 154.000 1.000
14.660 139.000 1.000
14.670 144.000 1.000
14.680 144.000 1.000
14.690 154.000 1.000
14.700 169.000 1.000
14.710 170.000 1.000
14.720 179.000 1.000
14.730 155.000 1.000
14.740 146.000 1.000
14.750 162.000 1.000
14.760 170.000 1.000
14.770 165.000 1.000
14.780 153.000 1.000
14.790 157.000 1.000
14.800 174.000 1.000
14.810 168.000 1.000
14.820 164.000 1.000
14.830 168.000 1.000
14.840 170.000 1.000
14.850 161.000 1.000
14.860 142.000 1.000
14.870 161.000 1.000
14.880 172.000 1.000
14.890 157.000 1.000
14.900 167.000 1.000
14.910 161.000 1.000
14.920 163.000 1.000
14.930 164.000 1.000
14.940 147.000 1.000
14.950 146.000 1.000
14.960 166.000 1.000
14.970 143.000 1.000
14.980 145.000 1.000
14.990 156.000 1.000
15.000 169.000 1.000
15.010 171.000 1.000
15.020 181.000 1.000
15.030 185.000 1.000
15.040 187.000 1.000
15.050 167.000 1.000
15.060 164.000 1.000
15.070 170.000 1.000
15.080 171.000 1.000
15.090 161.000 1.000
15.100 170.000 1.000
15.110 176.000 1.000
15.120 178.000 1.000
15.130 171.000 1.000
15.140 164.000 1.000
15.150 172.000 1.000
15.160 180.000 1.000
15.170 169.000 1.000
15.180 171.000 1.000
15.190 177.000 1.000
15.200 176.000 1.000
15.210 188.000 1.000
15.220 174.000 1.000
15.230 183.000 1.000
15.240 170.000 1.000
15.250 168.000 1.000
15.260 183.000 1.000
15.270 195.000 1.000
15.280 186.000 1.000
15.290 184.000 1.000
15.300 180.000 1.000
15.310 189.000 1.000
15.320 212.000 1.000
15.330 193.000 1.000
15.340 169.000 1.000
15.350 176.000 1.000
15.360 219.000 1.000
15.370 199.000 1.000
15.380 203.000 1.000
15.390 185.000 1.000
15.400 218.000 1.000
15.410 210.000 1.000
15.420 208.000 1.000
15.430 211.000 1.000
15.440 208.000 1.000
15.450 223.000 1.000
15.460 230.000 1.000
15.470 229.000 1.000
15.480 235.000 1.000
15.490 216.000 1.000
15.500 224.000 1.000
15.510 251.000 1.000
15.520 284.000 1.000
15.530 277.000 1.000
15.540 272.000 1.000
15.550 259.000 1.000
15.560 279.000 1.000
15.570 301.000 1.000
15.580 279.000 1.000
15.590 281.000 1.000
15.600 302.000 1.000
15.610 332.000 1.000
15.620 324.000 1.000
15.630 325.000 1.000
15.640 352.000 1.000
15.650 354.000 1.000
15.660 387.000 1.000
15.670 362.000 1.000
15.680 392.000 1.000
15.690 395.000 1.000
15.700 379.000 1.000
15.710 375.000 1.000
15.720 413.000 1.000
15.730 431.000 1.000
15.740 428.000 1.000
15.750 438.000 1.000
15.760 454.000 1.000
15.770 478.000 1.000
15.780 486.000 1.000
15.790 521.000 1.000
15.800 574.000 1.000
15.810 655.000 1.000
15.820 701.000 1.000
15.830 780.000 1.000
15.840 851.000 1.000
15.850 907.000 1.000
15.860 1079.000 1.000
15.870 1205.000 1.000
15.880 1330.000 1.000
15.890 1543.000 1.000
15.900 1680.000 1.000
15.910 1830.000 1.000
15.920 1980.000 1.000
15.930 2156.000 1.000
15.940 2337.000 1.000
15.950 2650.000 1.000
15.960 2792.000 1.000
15.970 2910.000 1.000
15.980 2955.000 1.000
15.990 2979.000 1.000
16.000 2930.000 1.000
16.010 2843.000 1.000
16.020 2662.000 1.000
16.030 2478.000 1.000
16.040 2126.000 1.000
16.050 1898.000 1.000
16.060 1654.000 1.000
16.070 1469.000 1.000
16.080 1298.000 1.000
16.090 1068.000 1.000
16.100 922.000 1.000
16.110 797.000 1.000
16.120 707.000 1.000
16.130 638.000 1.000
16.140 607.000 1.000
16.150 568.000 1.000
16.160 522.000 1.000
16.170 456.000 1.000
16.180 474.000 1.000
16.190 420.000 1.000
16.200 398.000 1.000
16.210 410.000 1.000
16.220 380.000 1.000
16.230 358.000 1.000
16.240 352.000 1.000
16.250 365.000 1.000
16.260 365.000 1.000
16.270 323.000 1.000
16.280 315.000 1.000
16.290 324.000 1.000
16.300 297.000 1.000
16.310 275.000 1.000
16.320 310.000 1.000
16.330 338.000 1.000
16.340 341.000 1.000
16.350 297.000 1.000
16.360 280.000 1.000
16.370 282.000 1.000
16.380 288.000 1.000
16.390 270.000 1.000
16.400 293.000 1.000
16.410 277.000 1.000
16.420 259.000 1.000
16.430 268.000 1.000
16.440 264.000 1.000
16.450 271.000 1.000
16.460 257.000 1.000
16.470 273.000 1.000
16.480 264.000 1.000
16.490 271.000 1.000
16.500 252.000 1.000
16.510 262.000 1.000
16.520 255.000 1.000
16.530 263.000 1.000
16.540 270.000 1.000
16.550 246.000 1.000
16.560 227.000 1.000
16.570 261.000 1.000
16.580 266.000 1.000
16.590 263.000 1.000
16.600 267.000 1.000
16.610 261.000 1.000
16.620 238.000 1.000
16.630 244.000 1.000
16.640 242.000 1.000
16.650 243.000 1.000
16.660 248.000 1.000
16.670 248.000 1.000
16.680 254.000 1.000
16.690 230.000 1.000
16.700 253.000 1.000
16.710 227.000 1.000
16.720 262.000 1.000
16.730 265.000 1.000
16.740 245.000 1.000
16.750 236.000 1.000
16.760 248.000 1.000
16.770 249.000 1.000
16.780 254.000 1.000
16.790 244.000 1.000
16.800 228.000 1.000
16.810 223.000 1.000
16.820 231.000 1.000
16.830 216.000 1.000
16.840 243.000 1.000
16.850 239.000 1.000
16.860 241.000 1.000
16.870 230.000 1.000
16.880 224.000 1.000
16.890 216.000 1.000
16.900 230.000 1.000
16.910 215.000 1.000
16.920 210.000 1.000
16.930 230.000 1.000
16.940 232.000 1.000
16.950 220.000 1.000
16.960 227.000 1.000
16.970 238.000 1.000
16.980 240.000 1.000
16.990 227.000 1.000
17.000 235.000 1.000
17.010 226.000 1.000
17.020 229.000 1.000
17.030 228.000 1.000
17.040 214.000 1.000
17.050 213.000 1.000
17.060 216.000 1.000
17.070 237.000 1.000
17.080 224.000 1.000
17.090 219.000 1.000
17.100 214.000 1.000
17.110 216.000 1.000
17.120 212.000 1.000
17.130 200.000 1.000
17.140 204.000 1.000
17.150 222.000 1.000
17.160 220.000 1.000
17.170 231.000 1.000
17.180 237.000 1.000
17.190 213.000 1.000
17.200 204.000 1.000
17.210 219.000 1.000
17.220 224.000 1.000
17.230 210.000 1.000
17.240 217.000 1.000
17.250 230.000 1.000
17.260 199.000 1.000
17.270 200.000 1.000
17.280 214.000 1.000
17.290 213.000 1.000
17.300 201.000 1.000
17.310 224.000 1.000
17.320 224.000 1.000
17.330 230.000 1.000
17.340 221.000 1.000
17.350 230.000 1.000
17.360 225.000 1.000
17.370 216.000 1.000
17.380 219.000 1.000
17.390 228.000 1.000
17.400 226.000 1.000
17.410 233.000 1.000
17.420 230.000 1.000
17.430 238.000 1.000
17.440 233.000 1.000
17.450 220.000 1.000
17.460 236.000 1.000
17.470 235.000 1.000
17.480 218.000 1.000
17.490 224.000 1.000
17.500 229.000 1.000
17.510 222.000 1.000
17.520 225.000 1.000
17.530 212.000 1.000
17.540 230.000 1.000
17.550 262.000 1.000
17.560 247.000 1.000
17.570 232.000 1.000
17.580 232.000 1.000
17.590 235.000 1.000
17.600 240.000 1.000
17.610 239.000 1.000
17.620 230.000 1.000
17.630 230.000 1.000
17.640 242.000 1.000
17.650 231.000 1.000
17.660 243.000 1.000
17.670 245.000 1.000
17.680 251.000 1.000
17.690 266.000 1.000
17.700 255.000 1.000
17.710 270.000 1.000
17.720 275.000 1.000
17.730 296.000 1.000
17.740 313.000 1.000
17.750 301.000 1.000
17.760 316.000 1.000
17.770 316.000 1.000
17.780 323.000 1.000
17.790 361.000 1.000
17.800 376.000 1.000
17.810 355.000 1.000
17.820 350.000 1.000
17.830 377.000 1.000
17.840 407.000 1.000
17.850 438.000 1.000
17.860 436.000 1.000
17.870 466.000 1.000
17.880 421.000 1.000
17.890 417.000 1.000
17.900 422.000 1.000
17.910 406.000 1.000
17.920 420.000 1.000
17.930 392.000 1.000
17.940 374.000 1.000
17.950 358.000 1.000
17.960 348.000 1.000
17.970 325.000 1.000
17.980 305.000 1.000
17.990 287.000 1.000
18.000 280.000 1.000
18.010 292.000 1.000
18.020 271.000 1.000
18.030 265.000 1.000
18.040 249.000 1.000
18.050 247.000 1.000
18.060 245.000 1.000
18.070 244.000 1.000
18.080 254.000 1.000
18.090 237.000 1.000
18.100 239.000 1.000
18.110 257.000 1.000
18.120 251.000 1.000
18.130 227.000 1.000
18.140 232.000 1.000
18.150 225.000 1.000
18.160 233.000 1.000
18.170 245.000 1.000
18.180 231.000 1.000
18.190 225.000 1.000
18.200 229.000 1.000
18.210 228.000 1.000
18.220 207.000 1.000
18.230 206.000 1.000
18.240 208.000 1.000
18.250 203.000 1.000
18.260 220.000 1.000
18.270 214.000 1.000
18.280 194.000 1.000
18.290 203.000 1.000
18.300 224.000 1.000
18.310 230.000 1.000
18.320 210.000 1.000
18.330 221.000 1.000
18.340 222.000 1.000
18.350 215.000 1.000
18.360 218.000 1.000
18.370 224.000 1.000
18.380 227.000 1.000
18.390 214.000 1.000
18.400 230.000 1.000
18.410 214.000 1.000
18.420 205.000 1.000
18.430 216.000 1.000
18.440 231.000 1.000
18.450 245.000 1.000
18.460 248.000 1.000
18.470 224.000 1.000
18.480 216.000 1.000
18.490 224.000 1.000
18.500 220.000 1.000
18.510 220.000 1.000
18.520 200.000 1.000
18.530 210.000 1.000
18.540 237.000 1.000
18.550 251.000 1.000
18.560 219.000 1.000
18.570 229.000 1.000
18.580 220.000 1.000
18.590 231.000 1.000
18.600 237.000 1.000
18.610 231.000 1.000
18.620 223.000 1.000
18.630 235.000 1.000
18.640 229.000 1.000
18.650 239.000 1.000
18.660 232.000 1.000
18.670 214.000 1.000
18.680 211.000 1.000
18.690 229.000 1.000
18.700 249.000 1.000
18.710 248.000 1.000
18.720 234.000 1.000
18.730 242.000 1.000
18.740 226.000 1.000
18.750 220.000 1.000
18.760 207.000 1.000
18.770 211.000 1.000
18.780 205.000 1.000
18.790 222.000 1.000
18.800 202.000 1.000
18.810 236.000 1.000
18.820 234.000 1.000
18.830 244.000 1.000
18.840 236.000 1.000
18.850 223.000 1.000
18.860 218.000 1.000
18.870 225.000 1.000
18.880 241.000 1.000
18.890 224.000 1.000
18.900 227.000 1.000
18.910 255.000 1.000
18.920 258.000 1.000
18.930 239.000 1.000
18.940 241.000 1.000
18.950 224.000 1.000
18.960 219.000 1.000
18.970 220.000 1.000
18.980 222.000 1.000
18.990 221.000 1.000
19.000 223.000 1.000
19.010 226.000 1.000
19.020 221.000 1.000
19.030 240.000 1.000
19.040 244.000 1.000
19.050 228.000 1.000
19.060 226.000 1.000
19.070 228.000 1.000
19.080 233.000 1.000
19.090 247.000 1.000
19.100 253.000 1.000
19.110 253.000 1.000
19.120 258.000 1.000
19.130 282.000 1.000
19.140 288.000 1.000
19.150 299.000 1.000
19.160 286.000 1.000
19.170 296.000 1.000
19.180 337.000 1.000
19.190 334.000 1.000
19.200 348.000 1.000
19.210 344.000 1.000
19.220 320.000 1.000
19.230 350.000 1.000
19.240 401.000 1.000
19.250 420.000 1.000
19.260 440.000 1.000
19.270 461.000 1.000
19.280 481.000 1.000
19.290 474.000 1.000
19.300 494.000 1.000
19.310 503.000 1.000
19.320 517.000 1.000
19.330 547.000 1.000
19.340 564.000 1.000
19.350 549.000 1.000
19.360 546.000 1.000
19.370 546.000 1.000
19.380 546.000 1.000
19.390 501.000 1.000
19.400 463.000 1.000
19.410 413.000 1.000
19.420 415.000 1.000
19.430 404.000 1.000
19.440 354.000 1.000
19.450 394.000 1.000
19.460 394.000 1.000
19.470 347.000 1.000
19.480 339.000 1.000
19.490 305.000 1.000
19.500 302.000 1.000
19.510 296.000 1.000
19.520 275.000 1.000
19.530 283.000 1.000
19.540 279.000 1.000
19.550 258.000 1.000
19.560 282.000 1.000
19.570 293.000 1.000
19.580 298.000 1.000
19.590 273.000 1.000
19.600 273.000 1.000
19.610 260.000 1.000
19.620 264.000 1.000
19.630 261.000 1.000
19.640 249.000 1.000
19.650 251.000 1.000
19.660 267.000 1.000
19.670 270.000 1.000
19.680 263.000 1.000
19.690 270.000 1.000
19.700 259.000 1.000
19.710 247.000 1.000
19.720 251.000 1.000
19.730 246.000 1.000
19.740 229.000 1.000
19.750 249.000 1.000
19.760 257.000 1.000
19.770 265.000 1.000
19.780 269.000 1.000
19.790 251.000 1.000
19.800 268.000 1.000
19.810 264.000 1.000
19.820 278.000 1.000
19.830 279.000 1.000
19.840 262.000 1.000
19.850 277.000 1.000
19.860 237.000 1.000
19.870 246.000 1.000
19.880 265.000 1.000
19.890 244.000 1.000
19.900 251.000 1.000
19.910 263.000 1.000
19.920 247.000 1.000
19.930 243.000 1.000
19.940 256.000 1.000
19.950 244.000 1.000
19.960 261.000 1.000
19.970 260.000 1.000
19.980 263.000 1.000
19.990 256.000 1.000
20.000 238.000 1.000
20.010 234.000 1.000
20.020 239.000 1.000
20.030 248.000 1.000
20.040 255.000 1.000
20.050 240.000 1.000
20.060 244.000 1.000
20.070 253.000 1.000
20.080 274.000 1.000
20.090 280.000 1.000
20.100 234.000 1.000
20.110 246.000 1.000
20.120 259.000 1.000
20.130 265.000 1.000
20.140 261.000 1.000
20.150 266.000 1.000
20.160 259.000 1.000
20.170 239.000 1.000
20.180 237.000 1.000
20.190 239.000 1.000
20.200 263.000 1.000
20.210 250.000 1.000
20.220 259.000 1.000
20.230 256.000 1.000
20.240 252.000 1.000
20.250 239.000 1.000
20.260 245.000 1.000
20.270 245.000 1.000
20.280 268.000 1.000
20.290 249.000 1.000
20.300 252.000 1.000
20.310 267.000 1.000
20.320 249.000 1.000
20.330 254.000 1.000
20.340 262.000 1.000
20.350 264.000 1.000
20.360 275.000 1.000
20.370 250.000 1.000
20.380 246.000 1.000
20.390 259.000 1.000
20.400 261.000 1.000
20.410 261.000 1.000
20.420 278.000 1.000
20.430 268.000 1.000
20.440 271.000 1.000
20.450 260.000 1.000
20.460 285.000 1.000
20.470 292.000 1.000
20.480 283.000 1.000
20.490 261.000 1.000
20.500 269.000 1.000
20.510 289.000 1.000
20.520 272.000 1.000
20.530 274.000 1.000
20.540 269.000 1.000
20.550 282.000 1.000
20.560 295.000 1.000
20.570 280.000 1.000
20.580 297.000 1.000
20.590 295.000 1.000
20.600 284.000 1.000
20.610 303.000 1.000
20.620 305.000 1.000
20.630 297.000 1.000
20.640 282.000 1.000
20.650 292.000 1.000
20.660 286.000 1.000
20.670 304.000 1.000
20.680 301.000 1.000
20.690 300.000 1.000
20.700 295.000 1.000
20.710 326.000 1.000
20.720 326.000 1.000
20.730 328.000 1.000
20.740 329.000 1.000
20.750 353.000 1.000
20.760 328.000 1.000
20.770 339.000 1.000
20.780 369.000 1.000
20.790 386.000 1.000
20.800 398.000 1.000
20.810 422.000 1.000
20.820 448.000 1.000
20.830 447.000 1.000
20.840 443.000 1.000
20.850 461.000 1.000
20.860 480.000 1.000
20.870 505.000 1.000
20.880 521.000 1.000
20.890 553.000 1.000
20.900 548.000 1.000
20.910 575.000 1.000
20.920 578.000 1.000
20.930 583.000 1.000
20.940 564.000 1.000
20.950 607.000 1.000
20.960 595.000 1.000
20.970 579.000 1.000
20.980 564.000 1.000
20.990 534.000 1.000
21.000 529.000 1.000
21.010 522.000 1.000
21.020 494.000 1.000
21.030 483.000 1.000
21.040 480.000 1.000
21.050 445.000 1.000
21.060 436.000 1.000
21.070 412.000 1.000
21.080 398.000 1.000
21.090 410.000 1.000
21.100 380.000 1.000
21.110 367.000 1.000
21.120 389.000 1.000
21.130 354.000 1.000
21.140 341.000 1.000
21.150 315.000 1.000
21.160 330.000 1.000
21.170 337.000 1.000
21.180 321.000 1.000
21.190 333.000 1.000
21.200 338.000 1.000
21.210 332.000 1.000
21.220 326.000 1.000
21.230 334.000 1.000
21.240 340.000 1.000
21.250 335.000 1.000
21.260 317.000 1.000
21.270 354.000 1.000
21.280 352.000 1.000
21.290 356.000 1.000
21.300 347.000 1.000
21.310 350.000 1.000
21.320 350.000 1.000
21.330 344.000 1.000
21.340 382.000 1.000
21.350 393.000 1.000
21.360 374.000 1.000
21.370 339.000 1.000
21.380 371.000 1.000
21.390 386.000 1.000
21.400 367.000 1.000
21.410 373.000 1.000
21.420 361.000 1.000
21.430 374.000 1.000
21.440 386.000 1.000
21.450 369.000 1.000
21.460 364.000 1.000
21.470 398.000 1.000
21.480 379.000 1.000
21.490 397.000 1.000
21.500 393.000 1.000
21.510 417.000 1.000
21.520 406.000 1.000
21.530 432.000 1.000
21.540 430.000 1.000
21.550 446.000 1.000
21.560 433.000 1.000
21.570 441.000 1.000
21.580 519.000 1.000
21.590 516.000 1.000
21.600 536.000 1.000
21.610 527.000 1.000
21.620 523.000 1.000
21.630 552.000 1.000
21.640 576.000 1.000
21.650 573.000 1.000
21.660 579.000 1.000
21.670 627.000 1.000
21.680 638.000 1.000
21.690 679.000 1.000
21.700 710.000 1.000
21.710 726.000 1.000
21.720 756.000 1.000
21.730 812.000 1.000
21.740 851.000 1.000
21.750 849.000 1.000
21.760 876.000 1.000
21.770 897.000 1.000
21.780 911.000 1.000
21.790 851.000 1.000
21.800 935.000 1.000
21.810 994.000 1.000
21.820 989.000 1.000
21.830 992.000 1.000
21.840 1003.000 1.000
21.850 968.000 1.000
21.860 1007.000 1.000
21.870 1055.000 1.000
21.880 1050.000 1.000
21.890 1033.000 1.000
21.900 1029.000 1.000
21.910 1066.000 1.000
21.920 1082.000 1.000
21.930 1074.000 1.000
21.940 1024.000 1.000
21.950 1017.000 1.000
21.960 995.000 1.000
21.970 920.000 1.000
21.980 922.000 1.000
21.990 907.000 1.000
22.000 872.000 1.000
22.010 811.000 1.000
22.020 803.000 1.000
22.030 757.000 1.000
22.040 688.000 1.000
22.050 659.000 1.000
22.060 619.000 1.000
22.070 559.000 1.000
22.080 511.000 1.000
22.090 540.000 1.000
22.100 515.000 1.000
22.110 494.000 1.000
22.120 460.000 1.000
22.130 413.000 1.000
22.140 389.000 1.000
22.150 403.000 1.000
22.160 413.000 1.000
22.170 410.000 1.000
22.180 391.000 1.000
22.190 372.000 1.000
22.200 372.000 1.000
22.210 387.000 1.000
22.220 386.000 1.000
22.230 372.000 1.000
22.240 363.000 1.000
22.250 369.000 1.000
22.260 375.000 1.000
22.270 375.000 1.000
22.280 379.000 1.000
22.290 375.000 1.000
22.300 368.000 1.000
22.310 366.000 1.000
22.320 390.000 1.000
22.330 385.000 1.000
22.340 397.000 1.000
22.350 375.000 1.000
22.360 391.000 1.000
22.370 359.000 1.000
22.380 373.000 1.000
22.390 389.000 1.000
22.400 421.000 1.000
22.410 404.000 1.000
22.420 404.000 1.000
22.430 373.000 1.000
22.440 391.000 1.000
22.450 381.000 1.000
22.460 367.000 1.000
22.470 401.000 1.000
22.480 408.000 1.000
22.490 418.000 1.000
22.500 414.000 1.000
22.510 409.000 1.000
22.520 426.000 1.000
22.530 430.000 1.000
22.540 436.000 1.000
22.550 433.000 1.000
22.560 413.000 1.000
22.570 396.000 1.000
22.580 430.000 1.000
22.590 462.000 1.000
22.600 466.000 1.000
22.610 455.000 1.000
22.620 432.000 1.000
22.630 449.000 1.000
22.640 458.000 1.000
22.650 491.000 1.000
22.660 477.000 1.000
22.670 461.000 1.000
22.680 481.000 1.000
22.690 472.000 1.000
22.700 461.000 1.000
22.710 481.000 1.000
22.720 491.000 1.000
22.730 498.000 1.000
22.740 473.000 1.000
22.750 468.000 1.000
22.760 503.000 1.000
22.770 490.000 1.000
22.780 505.000 1.000
22.790 476.000 1.000
22.800 457.000 1.000
22.810 483.000 1.000
22.820 510.000 1.000
22.830 514.000 1.000
22.840 496.000 1.000
22.850 477.000 1.000
22.860 457.000 1.000
22.870 454.000 1.000
22.880 488.000 1.000
22.890 478.000 1.000
22.900 479.000 1.000
22.910 487.000 1.000
22.920 472.000 1.000
22.930 488.000 1.000
22.940 485.000 1.000
22.950 449.000 1.000
22.960 462.000 1.000
22.970 485.000 1.000
22.980 491.000 1.000
22.990 500.000 1.000
23.000 500.000 1.000
23.010 521.000 1.000
23.020 527.000 1.000
23.030 496.000 1.000
23.040 516.000 1.000
23.050 544.000 1.000
23.060 535.000 1.000
23.070 544.000 1.000
23.080 549.000 1.000
23.090 586.000 1.000
23.100 588.000 1.000
23.110 639.000 1.000
23.120 648.000 1.000
23.130 633.000 1.000
23.140 650.000 1.000
23.150 684.000 1.000
23.160 725.000 1.000
23.170 760.000 1.000
23.180 802.000 1.000
23.190 818.000 1.000
23.200 853.000 1.000
23.210 827.000 1.000
23.220 806.000 1.000
23.230 834.000 1.000
23.240 839.000 1.000
23.250 835.000 1.000
23.260 837.000 1.000
23.270 852.000 1.000
23.280 821.000 1.000
23.290 797.000 1.000
23.300 759.000 1.000
23.310 770.000 1.000
23.320 758.000 1.000
23.330 796.000 1.000
23.340 786.000 1.000
23.350 736.000 1.000
23.360 752.000 1.000
23.370 802.000 1.000
23.380 751.000 1.000
23.390 718.000 1.000
23.400 703.000 1.000
23.410 663.000 1.000
23.420 631.000 1.000
23.430 637.000 1.000
23.440 662.000 1.000
23.450 624.000 1.000
23.460 589.000 1.000
23.470 568.000 1.000
23.480 552.000 1.000
23.490 536.000 1.000
23.500 480.000 1.000
23.510 470.000 1.000
23.520 472.000 1.000
23.530 477.000 1.000
23.540 467.000 1.000
23.550 470.000 1.000
23.560 430.000 1.000
23.570 407.000 1.000
23.580 407.000 1.000
23.590 432.000 1.000
23.600 410.000 1.000
23.610 395.000 1.000
23.620 372.000 1.000
23.630 373.000 1.000
23.640 384.000 1.000
23.650 404.000 1.000
23.660 380.000 1.000
23.670 356.000 1.000
23.680 391.000 1.000
23.690 360.000 1.000
23.700 383.000 1.000
23.710 383.000 1.000
23.720 385.000 1.000
23.730 386.000 1.000
23.740 357.000 1.000
23.750 342.000 1.000
23.760 372.000 1.000
23.770 391.000 1.000
23.780 375.000 1.000
23.790 361.000 1.000
23.800 403.000 1.000
23.810 409.000 1.000
23.820 386.000 1.000
23.830 431.000 1.000
23.840 438.000 1.000
23.850 456.000 1.000
23.860 421.000 1.000
23.870 454.000 1.000
23.880 458.000 1.000
23.890 506.000 1.000
23.900 499.000 1.000
23.910 513.000 1.000
23.920 554.000 1.000
23.930 613.000 1.000
23.940 676.000 1.000
23.950 695.000 1.000
23.960 742.000 1.000
23.970 806.000 1.000
23.980 884.000 1.000
23.990 908.000 1.000
24.000 961.000 1.000
24.010 1057.000 1.000
24.020 1038.000 1.000
24.030 1036.000 1.000
24.040 1083.000 1.000
24.050 1186.000 1.000
24.060 1167.000 1.000
24.070 1208.000 1.000
24.080 1167.000 1.000
24.090 1115.000 1.000
24.100 1076.000 1.000
24.110 1008.000 1.000
24.120 933.000 1.000
24.130 862.000 1.000
24.140 788.000 1.000
24.150 726.000 1.000
24.160 690.000 1.000
24.170 632.000 1.000
24.180 592.000 1.000
24.190 578.000 1.000
24.200 504.000 1.000
24.210 484.000 1.000
24.220 458.000 1.000
24.230 451.000 1.000
24.240 451.000 1.000
24.250 421.000 1.000
24.260 400.000 1.000
24.270 387.000 1.000
24.280 397.000 1.000
24.290 402.000 1.000
24.300 389.000 1.000
24.310 394.000 1.000
24.320 378.000 1.000
24.330 383.000 1.000
24.340 394.000 1.000
24.350 396.000 1.000
24.360 393.000 1.000
24.370 391.000 1.000
24.380 372.000 1.000
24.390 385.000 1.000
24.400 421.000 1.000
24.410 404.000 1.000
24.420 402.000 1.000
24.430 395.000 1.000
24.440 382.000 1.000
24.450 383.000 1.000
24.460 414.000 1.000
24.470 407.000 1.000
24.480 398.000 1.000
24.490 403.000 1.000
24.500 408.000 1.000
24.510 420.000 1.000
24.520 401.000 1.000
24.530 429.000 1.000
24.540 416.000 1.000
24.550 402.000 1.000
24.560 402.000 1.000
24.570 434.000 1.000
24.580 423.000 1.000
24.590 408.000 1.000
24.600 419.000 1.000
24.610 428.000 1.000
24.620 425.000 1.000
24.630 409.000 1.000
24.640 401.000 1.000
24.650 409.000 1.000
24.660 420.000 1.000
24.670 393.000 1.000
24.680 381.000 1.000
24.690 401.000 1.000
24.700 408.000 1.000
24.710 406.000 1.000
24.720 413.000 1.000
24.730 390.000 1.000
24.740 376.000 1.000
24.750 365.000 1.000
24.760 363.000 1.000
24.770 379.000 1.000
24.780 389.000 1.000
24.790 381.000 1.000
24.800 362.000 1.000
24.810 359.000 1.000
24.820 358.000 1.000
24.830 369.000 1.000
24.840 377.000 1.000
24.850 363.000 1.000
24.860 371.000 1.000
24.870 382.000 1.000
24.880 389.000 1.000
24.890 397.000 1.000
24.900 394.000 1.000
24.910 373.000 1.000
24.920 368.000 1.000
24.930 387.000 1.000
24.940 415.000 1.000
24.950 398.000 1.000
24.960 373.000 1.000
24.970 396.000 1.000
24.980 409.000 1.000
24.990 377.000 1.000
25.000 396.000 1.000
25.010 394.000 1.000
25.020 384.000 1.000
25.030 400.000 1.000
25.040 426.000 1.000
25.050 425.000 1.000
25.060 423.000 1.000
25.070 438.000 1.000
25.080 432.000 1.000
25.090 424.000 1.000
25.100 430.000 1.000
25.110 447.000 1.000
25.120 455.000 1.000
25.130 451.000 1.000
25.140 475.000 1.000
25.150 466.000 1.000
25.160 475.000 1.000
25.170 490.000 1.000
25.180 503.000 1.000
25.190 476.000 1.000
25.200 485.000 1.000
25.210 486.000 1.000
25.220 493.000 1.000
25.230 466.000 1.000
25.240 477.000 1.000
25.250 511.000 1.000
25.260 480.000 1.000
25.270 482.000 1.000
25.280 490.000 1.000
25.290 473.000 1.000
25.300 482.000 1.000
25.310 497.000 1.000
25.320 516.000 1.000
25.330 540.000 1.000
25.340 517.000 1.000
25.350 522.000 1.000
25.360 492.000 1.000
25.370 520.000 1.000
25.380 534.000 1.000
25.390 490.000 1.000
25.400 495.000 1.000
25.410 496.000 1.000
25.420 485.000 1.000
25.430 489.000 1.000
25.440 515.000 1.000
25.450 503.000 1.000
25.460 488.000 1.000
25.470 466.000 1.000
25.480 461.000 1.000
25.490 436.000 1.000
25.500 475.000 1.000
25.510 462.000 1.000
25.520 427.000 1.000
25.530 426.000 1.000
25.540 407.000 1.000
25.550 417.000 1.000
25.560 417.000 1.000
25.570 405.000 1.000
25.580 378.000 1.000
25.590 400.000 1.000
25.600 412.000 1.000
25.610 397.000 1.000
25.620 408.000 1.000
25.630 396.000 1.000
25.640 391.000 1.000
25.650 401.000 1.000
25.660 367.000 1.000
25.670 370.000 1.000
25.680 376.000 1.000
25.690 394.000 1.000
25.700 399.000 1.000
25.710 380.000 1.000
25.720 386.000 1.000
25.730 385.000 1.000
25.740 392.000 1.000
25.750 378.000 1.000
25.760 348.000 1.000
25.770 365.000 1.000
25.780 371.000 1.000
25.790 376.000 1.000
25.800 370.000 1.000
25.810 366.000 1.000
25.820 366.000 1.000
25.830 365.000 1.000
25.840 347.000 1.000
25.850 366.000 1.000
25.860 339.000 1.000
25.870 323.000 1.000
25.880 352.000 1.000
25.890 381.000 1.000
25.900 364.000 1.000
25.910 352.000 1.000
25.920 349.000 1.000
25.930 362.000 1.000
25.940 358.000 1.000
25.950 363.000 1.000
25.960 387.000 1.000
25.970 358.000 1.000
25.980 356.000 1.000
25.990 350.000 1.000
26.000 349.000 1.000
26.010 360.000 1.000
26.020 355.000 1.000
26.030 368.000 1.000
26.040 370.000 1.000
26.050 383.000 1.000
26.060 363.000 1.000
26.070 358.000 1.000
26.080 378.000 1.000
26.090 386.000 1.000
26.100 383.000 1.000
26.110 391.000 1.000
26.120 384.000 1.000
26.130 373.000 1.000
26.140 380.000 1.000
26.150 390.000 1.000
26.160 377.000 1.000
26.170 400.000 1.000
26.180 418.000 1.000
26.190 415.000 1.000
26.200 417.000 1.000
26.210 420.000 1.000
26.220 419.000 1.000
26.230 452.000 1.000
26.240 475.000 1.000
26.250 487.000 1.000
26.260 512.000 1.000
26.270 545.000 1.000
26.280 558.000 1.000
26.290 580.000 1.000
26.300 604.000 1.000
26.310 624.000 1.000
26.320 670.000 1.000
26.330 725.000 1.000
26.340 733.000 1.000
26.350 779.000 1.000
26.360 810.000 1.000
26.370 845.000 1.000
26.380 847.000 1.000
26.390 918.000 1.000
26.400 926.000 1.000
26.410 978.000 1.000
26.420 1001.000 1.000
26.430 1061.000 1.000
26.440 1003.000 1.000
26.450 1014.000 1.000
26.460 1052.000 1.000
26.470 1034.000 1.000
26.480 959.000 1.000
26.490 932.000 1.000
26.500 906.000 1.000
26.510 817.000 1.000
26.520 761.000 1.000
26.530 750.000 1.000
26.540 724.000 1.000
26.550 696.000 1.000
26.560 683.000 1.000
26.570 660.000 1.000
26.580 592.000 1.000
26.590 539.000 1.000
26.600 512.000 1.000
26.610 499.000 1.000
26.620 505.000 1.000
26.630 460.000 1.000
26.640 461.000 1.000
26.650 472.000 1.000
26.660 447.000 1.000
26.670 451.000 1.000
26.680 444.000 1.000
26.690 420.000 1.000
26.700 399.000 1.000
26.710 413.000 1.000
26.720 426.000 1.000
26.730 411.000 1.000
26.740 400.000 1.000
26.750 406.000 1.000
26.760 397.000 1.000
26.770 428.000 1.000
26.780 418.000 1.000
26.790 405.000 1.000
26.800 426.000 1.000
26.810 423.000 1.000
26.820 419.000 1.000
26.830 431.000 1.000
26.840 417.000 1.000
26.850 416.000 1.000
26.860 428.000 1.000
26.870 425.000 1.000
26.880 431.000 1.000
26.890 433.000 1.000
26.900 470.000 1.000
26.910 459.000 1.000
26.920 449.000 1.000
26.930 458.000 1.000
26.940 468.000 1.000
26.950 459.000 1.000
26.960 457.000 1.000
26.970 427.000 1.000
26.980 429.000 1.000
26.990 480.000 1.000
27.000 456.000 1.000
27.010 488.000 1.000
27.020 510.000 1.000
27.030 496.000 1.000
27.040 510.000 1.000
27.050 502.000 1.000
27.060 517.000 1.000
27.070 505.000 1.000
27.080 490.000 1.000
27.090 537.000 1.000
27.100 540.000 1.000
27.110 578.000 1.000
27.120 582.000 1.000
27.130 584.000 1.000
27.140 573.000 1.000
27.150 588.000 1.000
27.160 569.000 1.000
27.170 552.000 1.000
27.180 573.000 1.000
27.190 552.000 1.000
27.200 583.000 1.000
27.210 540.000 1.000
27.220 537.000 1.000
27.230 572.000 1.000
27.240 549.000 1.000
27.250 516.000 1.000
27.260 524.000 1.000
27.270 513.000 1.000
27.280 518.000 1.000
27.290 537.000 1.000
27.300 467.000 1.000
27.310 488.000 1.000
27.320 485.000 1.000
27.330 467.000 1.000
27.340 479.000 1.000
27.350 458.000 1.000
27.360 429.000 1.000
27.370 418.000 1.000
27.380 410.000 1.000
27.390 415.000 1.000
27.400 428.000 1.000
27.410 387.000 1.000
27.420 389.000 1.000
27.430 392.000 1.000
27.440 375.000 1.000
27.450 399.000 1.000
27.460 371.000 1.000
27.470 370.000 1.000
27.480 380.000 1.000
27.490 387.000 1.000
27.500 370.000 1.000
27.510 354.000 1.000
27.520 350.000 1.000
27.530 378.000 1.000
27.540 383.000 1.000
27.550 369.000 1.000
27.560 385.000 1.000
27.570 382.000 1.000
27.580 381.000 1.000
27.590 369.000 1.000
27.600 372.000 1.000
27.610 376.000 1.000
27.620 387.000 1.000
27.630 373.000 1.000
27.640 367.000 1.000
27.650 382.000 1.000
27.660 374.000 1.000
27.670 366.000 1.000
27.680 383.000 1.000
27.690 378.000 1.000
27.700 360.000 1.000
27.710 375.000 1.000
27.720 363.000 1.000
27.730 346.000 1.000
27.740 378.000 1.000
27.750 364.000 1.000
27.760 358.000 1.000
27.770 369.000 1.000
27.780 361.000 1.000
27.790 367.000 1.000
27.800 361.000 1.000
27.810 376.000 1.000
27.820 378.000 1.000
27.830 349.000 1.000
27.840 330.000 1.000
27.850 348.000 1.000
27.860 339.000 1.000
27.870 337.000 1.000
27.880 355.000 1.000
27.890 374.000 1.000
27.900 359.000 1.000
27.910 382.000 1.000
27.920 376.000 1.000
27.930 358.000 1.000
27.940 331.000 1.000
27.950 365.000 1.000
27.960 379.000 1.000
27.970 355.000 1.000
27.980 362.000 1.000
27.990 377.000 1.000
28.000 343.000 1.000
28.010 351.000 1.000
28.020 343.000 1.000
28.030 326.000 1.000
28.040 346.000 1.000
28.050 350.000 1.000
28.060 327.000 1.000
28.070 374.000 1.000
28.080 391.000 1.000
28.090 392.000 1.000
28.100 373.000 1.000
28.110 352.000 1.000
28.120 372.000 1.000
28.130 379.000 1.000
28.140 382.000 1.000
28.150 401.000 1.000
28.160 381.000 1.000
28.170 421.000 1.000
28.180 398.000 1.000
28.190 393.000 1.000
28.200 406.000 1.000
28.210 419.000 1.000
28.220 397.000 1.000
28.230 408.000 1.000
28.240 408.000 1.000
28.250 433.000 1.000
28.260 442.000 1.000
28.270 440.000 1.000
28.280 448.000 1.000
28.290 412.000 1.000
28.300 418.000 1.000
28.310 387.000 1.000
28.320 378.000 1.000
28.330 413.000 1.000
28.340 414.000 1.000
28.350 432.000 1.000
28.360 415.000 1.000
28.370 395.000 1.000
28.380 387.000 1.000
28.390 368.000 1.000
28.400 364.000 1.000
28.410 379.000 1.000
28.420 393.000 1.000
28.430 392.000 1.000
28.440 393.000 1.000
28.450 366.000 1.000
28.460 344.000 1.000
28.470 373.000 1.000
28.480 356.000 1.000
28.490 351.000 1.000
28.500 347.000 1.000
28.510 367.000 1.000
28.520 339.000 1.000
28.530 355.000 1.000
28.540 324.000 1.000
28.550 341.000 1.000
28.560 333.000 1.000
28.570 340.000 1.000
28.580 328.000 1.000
28.590 339.000 1.000
28.600 344.000 1.000
28.610 325.000 1.000
28.620 331.000 1.000
28.630 307.000 1.000
28.640 309.000 1.000
28.650 318.000 1.000
28.660 325.000 1.000
28.670 313.000 1.000
28.680 349.000 1.000
28.690 347.000 1.000
28.700 343.000 1.000
28.710 362.000 1.000
28.720 333.000 1.000
28.730 314.000 1.000
28.740 334.000 1.000
28.750 346.000 1.000
28.760 318.000 1.000
28.770 300.000 1.000
28.780 320.000 1.000
28.790 326.000 1.000
28.800 335.000 1.000
28.810 320.000 1.000
28.820 341.000 1.000
28.830 352.000 1.000
28.840 329.000 1.000
28.850 323.000 1.000
28.860 328.000 1.000
28.870 318.000 1.000
28.880 322.000 1.000
28.890 347.000 1.000
28.900 367.000 1.000
28.910 380.000 1.000
28.920 340.000 1.000
28.930 341.000 1.000
28.940 355.000 1.000
28.950 340.000 1.000
28.960 339.000 1.000
28.970 363.000 1.000
28.980 369.000 1.000
28.990 350.000 1.000
29.000 378.000 1.000
29.010 376.000 1.000
29.020 367.000 1.000
29.030 352.000 1.000
29.040 330.000 1.000
29.050 360.000 1.000
29.060 372.000 1.000
29.070 347.000 1.000
29.080 322.000 1.000
29.090 317.000 1.000
29.100 342.000 1.000
29.110 355.000 1.000
29.120 334.000 1.000
29.130 341.000 1.000
29.140 340.000 1.000
29.150 339.000 1.000
29.160 345.000 1.000
29.170 336.000 1.000
29.180 306.000 1.000
29.190 345.000 1.000
29.200 348.000 1.000
29.210 339.000 1.000
29.220 339.000 1.000
29.230 328.000 1.000
29.240 333.000 1.000
29.250 301.000 1.000
29.260 301.000 1.000
29.270 332.000 1.000
29.280 323.000 1.000
29.290 330.000 1.000
29.300 321.000 1.000
29.310 322.000 1.000
29.320 341.000 1.000
29.330 330.000 1.000
29.340 313.000 1.000
29.350 317.000 1.000
29.360 308.000 1.000
29.370 306.000 1.000
29.380 306.000 1.000
29.390 325.000 1.000
29.400 307.000 1.000
29.410 327.000 1.000
29.420 335.000 1.000
29.430 316.000 1.000
29.440 323.000 1.000
29.450 325.000 1.000
29.460 312.000 1.000
29.470 326.000 1.000
29.480 312.000 1.000
29.490 301.000 1.000
29.500 279.000 1.000
29.510 302.000 1.000
29.520 323.000 1.000
29.530 320.000 1.000
29.540 311.000 1.000
29.550 322.000 1.000
29.560 329.000 1.000
29.570 337.000 1.000
29.580 322.000 1.000
29.590 341.000 1.000
29.600 321.000 1.000
29.610 326.000 1.000
29.620 316.000 1.000
29.630 305.000 1.000
29.640 309.000 1.000
29.650 304.000 1.000
29.660 298.000 1.000
29.670 325.000 1.000
29.680 320.000 1.000
29.690 312.000 1.000
29.700 299.000 1.000
29.710 314.000 1.000
29.720 324.000 1.000
29.730 322.000 1.000
29.740 308.000 1.000
29.750 304.000 1.000
29.760 293.000 1.000
29.770 293.000 1.000
29.780 303.000 1.000
29.790 307.000 1.000
29.800 293.000 1.000
29.810 313.000 1.000
29.820 298.000 1.000
29.830 314.000 1.000
29.840 311.000 1.000
29.850 311.000 1.000
29.860 303.000 1.000
29.870 309.000 1.000
29.880 293.000 1.000
29.890 303.000 1.000
29.900 306.000 1.000
29.910 312.000 1.000
29.920 321.000 1.000
29.930 325.000 1.000
29.940 308.000 1.000
29.950 303.000 1.000
29.960 323.000 1.000
29.970 324.000 1.000
29.980 323.000 1.000
29.990 323.000 1.000
30.000 332.000 1.000
30.010 320.000 1.000
30.020 305.000 1.000
30.030 309.000 1.000
30.040 339.000 1.000
30.050 327.000 1.000
30.060 326.000 1.000
30.070 350.000 1.000
30.080 333.000 1.000
30.090 321.000 1.000
30.100 327.000 1.000
30.110 314.000 1.000
30.120 316.000 1.000
30.130 319.000 1.000
30.140 332.000 1.000
30.150 339.000 1.000
30.160 322.000 1.000
30.170 317.000 1.000
30.180 317.000 1.000
30.190 307.000 1.000
30.200 319.000 1.000
30.210 328.000 1.000
30.220 332.000 1.000
30.230 317.000 1.000
30.240 331.000 1.000
30.250 330.000 1.000
30.260 303.000 1.000
30.270 308.000 1.000
30.280 319.000 1.000
30.290 328.000 1.000
30.300 330.000 1.000
30.310 323.000 1.000
30.320 347.000 1.000
30.330 338.000 1.000
30.340 329.000 1.000
30.350 314.000 1.000
30.360 311.000 1.000
30.370 319.000 1.000
30.380 320.000 1.000
30.390 323.000 1.000
30.400 322.000 1.000
30.410 340.000 1.000
30.420 330.000 1.000
30.430 320.000 1.000
30.440 333.000 1.000
30.450 336.000 1.000
30.460 336.000 1.000
30.470 308.000 1.000
30.480 317.000 1.000
30.490 330.000 1.000
30.500 323.000 1.000
30.510 303.000 1.000
30.520 310.000 1.000
30.530 318.000 1.000
30.540 323.000 1.000
30.550 318.000 1.000
30.560 311.000 1.000
30.570 314.000 1.000
30.580 323.000 1.000
30.590 330.000 1.000
30.600 303.000 1.000
30.610 286.000 1.000
30.620 321.000 1.000
30.630 304.000 1.000
30.640 299.000 1.000
30.650 322.000 1.000
30.660 335.000 1.000
30.670 307.000 1.000
30.680 325.000 1.000
30.690 335.000 1.000
30.700 333.000 1.000
30.710 310.000 1.000
30.720 332.000 1.000
30.730 325.000 1.000
30.740 308.000 1.000
30.750 308.000 1.000
30.760 305.000 1.000
30.770 316.000 1.000
30.780 310.000 1.000
30.790 306.000 1.000
30.800 314.000 1.000
30.810 327.000 1.000
30.820 332.000 1.000
30.830 305.000 1.000
30.840 301.000 1.000
30.850 321.000 1.000
30.860 325.000 1.000
30.870 343.000 1.000
30.880 319.000 1.000
30.890 297.000 1.000
30.900 291.000 1.000
30.910 294.000 1.000
30.920 315.000 1.000
30.930 308.000 1.000
30.940 297.000 1.000
30.950 332.000 1.000
30.960 321.000 1.000
30.970 319.000 1.000
30.980 314.000 1.000
30.990 327.000 1.000
31.000 298.000 1.000
31.010 301.000 1.000
31.020 337.000 1.000
31.030 310.000 1.000
31.040 313.000 1.000
31.050 333.000 1.000
31.060 327.000 1.000
31.070 339.000 1.000
31.080 326.000 1.000
31.090 307.000 1.000
31.100 307.000 1.000
31.110 303.000 1.000
31.120 318.000 1.000
31.130 292.000 1.000
31.140 310.000 1.000
31.150 350.000 1.000
31.160 307.000 1.000
31.170 291.000 1.000
31.180 299.000 1.000
31.190 312.000 1.000
31.200 334.000 1.000
31.210 320.000 1.000
31.220 317.000 1.000
31.230 291.000 1.000
31.240 319.000 1.000
31.250 310.000 1.000
31.260 320.000 1.000
31.270 307.000 1.000
31.280 336.000 1.000
31.290 325.000 1.000
31.300 301.000 1.000
31.310 298.000 1.000
31.320 329.000 1.000
31.330 325.000 1.000
31.340 337.000 1.000
31.350 351.000 1.000
31.360 326.000 1.000
31.370 334.000 1.000
31.380 358.000 1.000
31.390 340.000 1.000
31.400 341.000 1.000
31.410 345.000 1.000
31.420 339.000 1.000
31.430 338.000 1.000
31.440 337.000 1.000
31.450 331.000 1.000
31.460 346.000 1.000
31.470 356.000 1.000
31.480 354.000 1.000
31.490 330.000 1.000
31.500 339.000 1.000
31.510 367.000 1.000
31.520 376.000 1.000
31.530 351.000 1.000
31.540 335.000 1.000
31.550 368.000 1.000
31.560 354.000 1.000
31.570 335.000 1.000
31.580 336.000 1.000
31.590 351.000 1.000
31.600 353.000 1.000
31.610 353.000 1.000
31.620 355.000 1.000
31.630 342.000 1.000
31.640 337.000 1.000
31.650 345.000 1.000
31.660 329.000 1.000
31.670 323.000 1.000
31.680 337.000 1.000
31.690 343.000 1.000
31.700 331.000 1.000
31.710 336.000 1.000
31.720 344.000 1.000
31.730 339.000 1.000
31.740 330.000 1.000
31.750 361.000 1.000
31.760 375.000 1.000
31.770 353.000 1.000
31.780 339.000 1.000
31.790 329.000 1.000
31.800 359.000 1.000
31.810 347.000 1.000
31.820 343.000 1.000
31.830 337.000 1.000
31.840 312.000 1.000
31.850 348.000 1.000
31.860 329.000 1.000
31.870 332.000 1.000
31.880 339.000 1.000
31.890 346.000 1.000
31.900 348.000 1.000
31.910 323.000 1.000
31.920 338.000 1.000
31.930 325.000 1.000
31.940 334.000 1.000
31.950 302.000 1.000
31.960 321.000 1.000
31.970 354.000 1.000
31.980 332.000 1.000
31.990 298.000 1.000
32.000 332.000 1.000
32.010 354.000 1.000
32.020 350.000 1.000
32.030 326.000 1.000
32.040 316.000 1.000
32.050 333.000 1.000
32.060 339.000 1.000
32.070 340.000 1.000
32.080 338.000 1.000
32.090 337.000 1.000
32.100 334.000 1.000
32.110 350.000 1.000
32.120 355.000 1.000
32.130 379.000 1.000
32.140 375.000 1.000
32.150 383.000 1.000
32.160 405.000 1.000
32.170 404.000 1.000
32.180 386.000 1.000
32.190 401.000 1.000
32.200 442.000 1.000
32.210 429.000 1.000
32.220 436.000 1.000
32.230 460.000 1.000
32.240 454.000 1.000
32.250 442.000 1.000
32.260 453.000 1.000
32.270 454.000 1.000
32.280 431.000 1.000
32.290 461.000 1.000
32.300 435.000 1.000
32.310 428.000 1.000
32.320 442.000 1.000
32.330 438.000 1.000
32.340 428.000 1.000
32.350 414.000 1.000
32.360 418.000 1.000
32.370 382.000 1.000
32.380 380.000 1.000
32.390 372.000 1.000
32.400 386.000 1.000
32.410 370.000 1.000
32.420 352.000 1.000
32.430 351.000 1.000
32.440 346.000 1.000
32.450 364.000 1.000
32.460 364.000 1.000
32.470 350.000 1.000
32.480 350.000 1.000
32.490 358.000 1.000
32.500 369.000 1.000
32.510 376.000 1.000
32.520 348.000 1.000
32.530 365.000 1.000
32.540 340.000 1.000
32.550 356.000 1.000
32.560 335.000 1.000
32.570 359.000 1.000
32.580 355.000 1.000
32.590 342.000 1.000
32.600 353.000 1.000
32.610 372.000 1.000
32.620 377.000 1.000
32.630 376.000 1.000
32.640 346.000 1.000
32.650 329.000 1.000
32.660 341.000 1.000
32.670 351.000 1.000
32.680 341.000 1.000
32.690 341.000 1.000
32.700 344.000 1.000
32.710 351.000 1.000
32.720 346.000 1.000
32.730 325.000 1.000
32.740 328.000 1.000
32.750 349.000 1.000
32.760 354.000 1.000
32.770 336.000 1.000
32.780 350.000 1.000
32.790 349.000 1.000
32.800 365.000 1.000
32.810 364.000 1.000
32.820 359.000 1.000
32.830 352.000 1.000
32.840 373.000 1.000
32.850 365.000 1.000
32.860 352.000 1.000
32.870 353.000 1.000
32.880 365.000 1.000
32.890 368.000 1.000
32.900 365.000 1.000
32.910 354.000 1.000
32.920 354.000 1.000
32.930 361.000 1.000
32.940 348.000 1.000
32.950 357.000 1.000
32.960 378.000 1.000
32.970 381.000 1.000
32.980 374.000 1.000
32.990 379.000 1.000
33.000 371.000 1.000
33.010 333.000 1.000
33.020 333.000 1.000
33.030 351.000 1.000
33.040 325.000 1.000
33.050 349.000 1.000
33.060 372.000 1.000
33.070 376.000 1.000
33.080 371.000 1.000
33.090 371.000 1.000
33.100 368.000 1.000
33.110 359.000 1.000
33.120 369.000 1.000
33.130 367.000 1.000
33.140 380.000 1.000
33.150 391.000 1.000
33.160 385.000 1.000
33.170 378.000 1.000
33.180 385.000 1.000
33.190 392.000 1.000
33.200 393.000 1.000
33.210 391.000 1.000
33.220 415.000 1.000
33.230 417.000 1.000
33.240 404.000 1.000
33.250 419.000 1.000
33.260 413.000 1.000
33.270 392.000 1.000
33.280 399.000 1.000
33.290 388.000 1.000
33.300 374.000 1.000
33.310 377.000 1.000
33.320 371.000 1.000
33.330 382.000 1.000
33.340 382.000 1.000
33.350 375.000 1.000
33.360 369.000 1.000
33.370 362.000 1.000
33.380 337.000 1.000
33.390 350.000 1.000
33.400 393.000 1.000
33.410 350.000 1.000
33.420 347.000 1.000
33.430 356.000 1.000
33.440 348.000 1.000
33.450 349.000 1.000
33.460 366.000 1.000
33.470 354.000 1.000
33.480 353.000 1.000
33.490 370.000 1.000
33.500 367.000 1.000
33.510 358.000 1.000
33.520 341.000 1.000
33.530 337.000 1.000
33.540 339.000 1.000
33.550 338.000 1.000
33.560 337.000 1.000
33.570 348.000 1.000
33.580 344.000 1.000
33.590 341.000 1.000
33.600 343.000 1.000
33.610 329.000 1.000
33.620 341.000 1.000
33.630 360.000 1.000
33.640 330.000 1.000
33.650 325.000 1.000
33.660 347.000 1.000
33.670 347.000 1.000
33.680 363.000 1.000
33.690 353.000 1.000
33.700 341.000 1.000
33.710 330.000 1.000
33.720 335.000 1.000
33.730 372.000 1.000
33.740 365.000 1.000
33.750 354.000 1.000
33.760 357.000 1.000
33.770 369.000 1.000
33.780 357.000 1.000
33.790 368.000 1.000
33.800 369.000 1.000
33.810 376.000 1.000
33.820 372.000 1.000
33.830 356.000 1.000
33.840 388.000 1.000
33.850 380.000 1.000
33.860 360.000 1.000
33.870 382.000 1.000
33.880 388.000 1.000
33.890 351.000 1.000
33.900 332.000 1.000
33.910 382.000 1.000
33.920 387.000 1.000
33.930 387.000 1.000
33.940 402.000 1.000
33.950 393.000 1.000
33.960 415.000 1.000
33.970 402.000 1.000
33.980 382.000 1.000
33.990 405.000 1.000
34.000 430.000 1.000
34.010 441.000 1.000
34.020 440.000 1.000
34.030 453.000 1.000
34.040 484.000 1.000
34.050 507.000 1.000
34.060 522.000 1.000
34.070 518.000 1.000
34.080 511.000 1.000
34.090 541.000 1.000
34.100 538.000 1.000
34.110 511.000 1.000
34.120 512.000 1.000
34.130 511.000 1.000
34.140 528.000 1.000
34.150 548.000 1.000
34.160 522.000 1.000
34.170 470.000 1.000
34.180 468.000 1.000
34.190 494.000 1.000
34.200 482.000 1.000
34.210 474.000 1.000
34.220 474.000 1.000
34.230 477.000 1.000
34.240 463.000 1.000
34.250 446.000 1.000
34.260 436.000 1.000
34.270 448.000 1.000
34.280 450.000 1.000
34.290 446.000 1.000
34.300 449.000 1.000
34.310 430.000 1.000
34.320 390.000 1.000
34.330 412.000 1.000
34.340 416.000 1.000
34.350 424.000 1.000
34.360 414.000 1.000
34.370 411.000 1.000
34.380 387.000 1.000
34.390 365.000 1.000
34.400 394.000 1.000
34.410 422.000 1.000
34.420 392.000 1.000
34.430 370.000 1.000
34.440 392.000 1.000
34.450 394.000 1.000
34.460 370.000 1.000
34.470 373.000 1.000
34.480 378.000 1.000
34.490 372.000 1.000
34.500 351.000 1.000
34.510 364.000 1.000
34.520 400.000 1.000
34.530 382.000 1.000
34.540 366.000 1.000
34.550 394.000 1.000
34.560 368.000 1.000
34.570 359.000 1.000
34.580 377.000 1.000
34.590 377.000 1.000
34.600 357.000 1.000
34.610 358.000 1.000
34.620 360.000 1.000
34.630 356.000 1.000
34.640 358.000 1.000
34.650 372.000 1.000
34.660 381.000 1.000
34.670 379.000 1.000
34.680 362.000 1.000
34.690 360.000 1.000
34.700 377.000 1.000
34.710 391.000 1.000
34.720 358.000 1.000
34.730 352.000 1.000
34.740 367.000 1.000
34.750 343.000 1.000
34.760 346.000 1.000
34.770 383.000 1.000
34.780 378.000 1.000
34.790 361.000 1.000
34.800 354.000 1.000
34.810 350.000 1.000
34.820 351.000 1.000
34.830 358.000 1.000
34.840 359.000 1.000
34.850 375.000 1.000
34.860 390.000 1.000
34.870 377.000 1.000
34.880 379.000 1.000
34.890 370.000 1.000
34.900 385.000 1.000
34.910 362.000 1.000
34.920 374.000 1.000
34.930 381.000 1.000
34.940 411.000 1.000
34.950 403.000 1.000
34.960 408.000 1.000
34.970 393.000 1.000
34.980 402.000 1.000
34.990 392.000 1.000
35.000 409.000 1.000
35.010 425.000 1.000
35.020 415.000 1.000
35.030 422.000 1.000
35.040 428.000 1.000
35.050 417.000 1.000
35.060 414.000 1.000
35.070 401.000 1.000
35.080 414.000 1.000
35.090 411.000 1.000
35.100 423.000 1.000
35.110 437.000 1.000
35.120 408.000 1.000
35.130 393.000 1.000
35.140 411.000 1.000
35.150 435.000 1.000
35.160 425.000 1.000
35.170 437.000 1.000
35.180 458.000 1.000
35.190 423.000 1.000
35.200 415.000 1.000
35.210 422.000 1.000
35.220 405.000 1.000
35.230 387.000 1.000
35.240 366.000 1.000
35.250 378.000 1.000
35.260 399.000 1.000
35.270 397.000 1.000
35.280 372.000 1.000
35.290 389.000 1.000
35.300 382.000 1.000
35.310 383.000 1.000
35.320 372.000 1.000
35.330 352.000 1.000
35.340 354.000 1.000
35.350 338.000 1.000
35.360 377.000 1.000
35.370 370.000 1.000
35.380 401.000 1.000
35.390 404.000 1.000
35.400 386.000 1.000
35.410 357.000 1.000
35.420 356.000 1.000
35.430 380.000 1.000
35.440 352.000 1.000
35.450 346.000 1.000
35.460 373.000 1.000
35.470 397.000 1.000
35.480 394.000 1.000
35.490 352.000 1.000
35.500 351.000 1.000
35.510 369.000 1.000
35.520 348.000 1.000
35.530 335.000 1.000
35.540 363.000 1.000
35.550 387.000 1.000
35.560 346.000 1.000
35.570 361.000 1.000
35.580 357.000 1.000
35.590 362.000 1.000
35.600 352.000 1.000
35.610 342.000 1.000
35.620 361.000 1.000
35.630 349.000 1.000
35.640 337.000 1.000
35.650 350.000 1.000
35.660 352.000 1.000
35.670 321.000 1.000
35.680 329.000 1.000
35.690 317.000 1.000
35.700 346.000 1.000
35.710 355.000 1.000
35.720 355.000 1.000
35.730 348.000 1.000
35.740 381.000 1.000
35.750 353.000 1.000
35.760 355.000 1.000
35.770 347.000 1.000
35.780 357.000 1.000
35.790 374.000 1.000
35.800 372.000 1.000
35.810 356.000 1.000
35.820 341.000 1.000
35.830 348.000 1.000
35.840 354.000 1.000
35.850 361.000 1.000
35.860 359.000 1.000
35.870 341.000 1.000
35.880 331.000 1.000
35.890 363.000 1.000
35.900 355.000 1.000
35.910 348.000 1.000
35.920 360.000 1.000
35.930 347.000 1.000
35.940 351.000 1.000
35.950 384.000 1.000
35.960 358.000 1.000
35.970 323.000 1.000
35.980 365.000 1.000
35.990 368.000 1.000
36.000 368.000 1.000
36.010 365.000 1.000
36.020 377.000 1.000
36.030 375.000 1.000
36.040 385.000 1.000
36.050 366.000 1.000
36.060 363.000 1.000
36.070 364.000 1.000
36.080 363.000 1.000
36.090 379.000 1.000
36.100 384.000 1.000
36.110 343.000 1.000
36.120 368.000 1.000
36.130 388.000 1.000
36.140 392.000 1.000
36.150 369.000 1.000
36.160 397.000 1.000
36.170 397.000 1.000
36.180 386.000 1.000
36.190 404.000 1.000
36.200 399.000 1.000
36.210 398.000 1.000
36.220 395.000 1.000
36.230 406.000 1.000
36.240 418.000 1.000
36.250 412.000 1.000
36.260 393.000 1.000
36.270 383.000 1.000
36.280 392.000 1.000
36.290 399.000 1.000
36.300 381.000 1.000
36.310 384.000 1.000
36.320 377.000 1.000
36.330 389.000 1.000
36.340 349.000 1.000
36.350 358.000 1.000
36.360 363.000 1.000
36.370 375.000 1.000
36.380 380.000 1.000
36.390 363.000 1.000
36.400 350.000 1.000
36.410 374.000 1.000
36.420 384.000 1.000
36.430 375.000 1.000
36.440 352.000 1.000
36.450 339.000 1.000
36.460 365.000 1.000
36.470 388.000 1.000
36.480 376.000 1.000
36.490 360.000 1.000
36.500 358.000 1.000
36.510 369.000 1.000
36.520 360.000 1.000
36.530 374.000 1.000
36.540 365.000 1.000
36.550 365.000 1.000
36.560 367.000 1.000
36.570 361.000 1.000
36.580 397.000 1.000
36.590 385.000 1.000
36.600 390.000 1.000
36.610 384.000 1.000
36.620 371.000 1.000
36.630 357.000 1.000
36.640 371.000 1.000
36.650 411.000 1.000
36.660 372.000 1.000
36.670 378.000 1.000
36.680 375.000 1.000
36.690 355.000 1.000
36.700 358.000 1.000
36.710 371.000 1.000
36.720 367.000 1.000
36.730 365.000 1.000
36.740 393.000 1.000
36.750 372.000 1.000
36.760 343.000 1.000
36.770 340.000 1.000
36.780 338.000 1.000
36.790 347.000 1.000
36.800 366.000 1.000
36.810 369.000 1.000
36.820 353.000 1.000
36.830 348.000 1.000
36.840 356.000 1.000
36.850 374.000 1.000
36.860 379.000 1.000
36.870 365.000 1.000
36.880 382.000 1.000
36.890 372.000 1.000
36.900 369.000 1.000
36.910 376.000 1.000
36.920 395.000 1.000
36.930 381.000 1.000
36.940 363.000 1.000
36.950 369.000 1.000
36.960 357.000 1.000
36.970 365.000 1.000
36.980 341.000 1.000
36.990 346.000 1.000
37.000 352.000 1.000
37.010 343.000 1.000
37.020 372.000 1.000
37.030 369.000 1.000
37.040 377.000 1.000
37.050 371.000 1.000
37.060 356.000 1.000
37.070 358.000 1.000
37.080 366.000 1.000
37.090 369.000 1.000
37.100 378.000 1.000
37.110 392.000 1.000
37.120 375.000 1.000
37.130 370.000 1.000
37.140 372.000 1.000
37.150 389.000 1.000
37.160 375.000 1.000
37.170 362.000 1.000
37.180 372.000 1.000
37.190 391.000 1.000
37.200 385.000 1.000
37.210 396.000 1.000
37.220 373.000 1.000
37.230 376.000 1.000
37.240 357.000 1.000
37.250 378.000 1.000
37.260 370.000 1.000
37.270 356.000 1.000
37.280 369.000 1.000
37.290 362.000 1.000
37.300 357.000 1.000
37.310 367.000 1.000
37.320 383.000 1.000
37.330 383.000 1.000
37.340 388.000 1.000
37.350 392.000 1.000
37.360 400.000 1.000
37.370 378.000 1.000
37.380 391.000 1.000
37.390 374.000 1.000
37.400 386.000 1.000
37.410 375.000 1.000
37.420 332.000 1.000
37.430 357.000 1.000
37.440 386.000 1.000
37.450 405.000 1.000
37.460 343.000 1.000
37.470 389.000 1.000
37.480 351.000 1.000
37.490 368.000 1.000
37.500 384.000 1.000
37.510 377.000 1.000
37.520 383.000 1.000
37.530 359.000 1.000
37.540 360.000 1.000
37.550 377.000 1.000
37.560 372.000 1.000
37.570 380.000 1.000
37.580 387.000 1.000
37.590 391.000 1.000
37.600 409.000 1.000
37.610 382.000 1.000
37.620 395.000 1.000
37.630 396.000 1.000
37.640 401.000 1.000
37.650 394.000 1.000
37.660 399.000 1.000
37.670 388.000 1.000
37.680 398.000 1.000
37.690 413.000 1.000
37.700 415.000 1.000
37.710 407.000 1.000
37.720 424.000 1.000
37.730 409.000 1.000
37.740 401.000 1.000
37.750 395.000 1.000
37.760 422.000 1.000
37.770 422.000 1.000
37.780 403.000 1.000
37.790 424.000 1.000
37.800 415.000 1.000
37.810 421.000 1.000
37.820 390.000 1.000
37.830 403.000 1.000
37.840 415.000 1.000
37.850 405.000 1.000
37.860 398.000 1.000
37.870 386.000 1.000
37.880 352.000 1.000
37.890 402.000 1.000
37.900 413.000 1.000
37.910 400.000 1.000
37.920 392.000 1.000
37.930 402.000 1.000
37.940 395.000 1.000
37.950 388.000 1.000
37.960 409.000 1.000
37.970 388.000 1.000
37.980 378.000 1.000
37.990 383.000 1.000
38.000 366.000 1.000
38.010 355.000 1.000
38.020 364.000 1.000
38.030 363.000 1.000
38.040 369.000 1.000
38.050 365.000 1.000
38.060 384.000 1.000
38.070 365.000 1.000
38.080 356.000 1.000
38.090 356.000 1.000
38.100 362.000 1.000
38.110 346.000 1.000
38.120 336.000 1.000
38.130 339.000 1.000
38.140 353.000 1.000
38.150 368.000 1.000
38.160 382.000 1.000
38.170 383.000 1.000
38.180 361.000 1.000
38.190 328.000 1.000
38.200 338.000 1.000
38.210 348.000 1.000
38.220 330.000 1.000
38.230 348.000 1.000
38.240 342.000 1.000
38.250 342.000 1.000
38.260 338.000 1.000
38.270 346.000 1.000
38.280 348.000 1.000
38.290 345.000 1.000
38.300 353.000 1.000
38.310 320.000 1.000
38.320 338.000 1.000
38.330 356.000 1.000
38.340 353.000 1.000
38.350 334.000 1.000
38.360 322.000 1.000
38.370 339.000 1.000
38.380 363.000 1.000
38.390 361.000 1.000
38.400 351.000 1.000
38.410 363.000 1.000
38.420 367.000 1.000
38.430 357.000 1.000
38.440 371.000 1.000
38.450 342.000 1.000
38.460 337.000 1.000
38.470 344.000 1.000
38.480 352.000 1.000
38.490 343.000 1.000
38.500 331.000 1.000
38.510 336.000 1.000
38.520 341.000 1.000
38.530 354.000 1.000
38.540 362.000 1.000
38.550 350.000 1.000
38.560 352.000 1.000
38.570 369.000 1.000
38.580 373.000 1.000
38.590 368.000 1.000
38.600 354.000 1.000
38.610 337.000 1.000
38.620 345.000 1.000
38.630 358.000 1.000
38.640 354.000 1.000
38.650 346.000 1.000
38.660 353.000 1.000
38.670 347.000 1.000
38.680 383.000 1.000
38.690 356.000 1.000
38.700 350.000 1.000
38.710 367.000 1.000
38.720 369.000 1.000
38.730 373.000 1.000
38.740 357.000 1.000
38.750 351.000 1.000
38.760 337.000 1.000
38.770 346.000 1.000
38.780 353.000 1.000
38.790 360.000 1.000
38.800 349.000 1.000
38.810 354.000 1.000
38.820 352.000 1.000
38.830 358.000 1.000
38.840 348.000 1.000
38.850 359.000 1.000
38.860 388.000 1.000
38.870 391.000 1.000
38.880 351.000 1.000
38.890 346.000 1.000
38.900 347.000 1.000
38.910 375.000 1.000
38.920 357.000 1.000
38.930 350.000 1.000
38.940 358.000 1.000
38.950 362.000 1.000
38.960 365.000 1.000
38.970 343.000 1.000
38.980 327.000 1.000
38.990 351.000 1.000
39.000 347.000 1.000
39.010 354.000 1.000
39.020 375.000 1.000
39.030 358.000 1.000
39.040 365.000 1.000
39.050 375.000 1.000
39.060 356.000 1.000
39.070 352.000 1.000
39.080 353.000 1.000
39.090 372.000 1.000
39.100 362.000 1.000
39.110 391.000 1.000
39.120 376.000 1.000
39.130 377.000 1.000
39.140 361.000 1.000
39.150 387.000 1.000
39.160 374.000 1.000
39.170 395.000 1.000
39.180 370.000 1.000
39.190 357.000 1.000
39.200 362.000 1.000
39.210 387.000 1.000
39.220 369.000 1.000
39.230 362.000 1.000
39.240 403.000 1.000
39.250 378.000 1.000
39.260 358.000 1.000
39.270 376.000 1.000
39.280 357.000 1.000
39.290 351.000 1.000
39.300 368.000 1.000
39.310 373.000 1.000
39.320 374.000 1.000
39.330 382.000 1.000
39.340 364.000 1.000
39.350 367.000 1.000
39.360 384.000 1.000
39.370 386.000 1.000
39.380 368.000 1.000
39.390 381.000 1.000
39.400 367.000 1.000
39.410 362.000 1.000
39.420 372.000 1.000
39.430 385.000 1.000
39.440 373.000 1.000
39.450 347.000 1.000
39.460 347.000 1.000
39.470 379.000 1.000
39.480 404.000 1.000
39.490 376.000 1.000
39.500 353.000 1.000
39.510 361.000 1.000
39.520 368.000 1.000
39.530 353.000 1.000
39.540 332.000 1.000
39.550 349.000 1.000
39.560 360.000 1.000
39.570 341.000 1.000
39.580 361.000 1.000
39.590 359.000 1.000
39.600 365.000 1.000
39.610 370.000 1.000
39.620 381.000 1.000
39.630 350.000 1.000
39.640 355.000 1.000
39.650 358.000 1.000
39.660 380.000 1.000
39.670 369.000 1.000
39.680 359.000 1.000
39.690 372.000 1.000
39.700 369.000 1.000
39.710 365.000 1.000
39.720 357.000 1.000
39.730 375.000 1.000
39.740 368.000 1.000
39.750 346.000 1.000
39.760 356.000 1.000
39.770 364.000 1.000
39.780 336.000 1.000
39.790 358.000 1.000
39.800 388.000 1.000
39.810 377.000 1.000
39.820 387.000 1.000
39.830 383.000 1.000
39.840 393.000 1.000
39.850 401.000 1.000
39.860 390.000 1.000
39.870 374.000 1.000
39.880 362.000 1.000
39.890 387.000 1.000
39.900 399.000 1.000
39.910 366.000 1.000
39.920 356.000 1.000
39.930 350.000 1.000
39.940 381.000 1.000
39.950 378.000 1.000
39.960 374.000 1.000
39.970 382.000 1.000
39.980 354.000 1.000
39.990 365.000 1.000
40.000 380.000 1.000
40.010 354.000 1.000
40.020 366.000 1.000
40.030 361.000 1.000
40.040 368.000 1.000
40.050 411.000 1.000
40.060 396.000 1.000
40.070 357.000 1.000
40.080 353.000 1.000
40.090 359.000 1.000
40.100 379.000 1.000
40.110 376.000 1.000
40.120 383.000 1.000
40.130 368.000 1.000
40.140 374.000 1.000
40.150 405.000 1.000
40.160 380.000 1.000
40.170 382.000 1.000
40.180 412.000 1.000
40.190 362.000 1.000
40.200 397.000 1.000
40.210 399.000 1.000
40.220 385.000 1.000
40.230 398.000 1.000
40.240 399.000 1.000
40.250 402.000 1.000
40.260 384.000 1.000
40.270 398.000 1.000
40.280 409.000 1.000
40.290 409.000 1.000
40.300 398.000 1.000
40.310 384.000 1.000
40.320 375.000 1.000
40.330 399.000 1.000
40.340 424.000 1.000
40.350 424.000 1.000
40.360 416.000 1.000
40.370 443.000 1.000
40.380 442.000 1.000
40.390 406.000 1.000
40.400 409.000 1.000
40.410 425.000 1.000
40.420 413.000 1.000
40.430 416.000 1.000
40.440 425.000 1.000
40.450 409.000 1.000
40.460 435.000 1.000
40.470 418.000 1.000
40.480 416.000 1.000
40.490 447.000 1.000
40.500 459.000 1.000
40.510 462.000 1.000
40.520 476.000 1.000
40.530 472.000 1.000
40.540 491.000 1.000
40.550 506.000 1.000
40.560 485.000 1.000
40.570 498.000 1.000
40.580 530.000 1.000
40.590 546.000 1.000
40.600 560.000 1.000
40.610 525.000 1.000
40.620 513.000 1.000
40.630 542.000 1.000
40.640 553.000 1.000
40.650 544.000 1.000
40.660 527.000 1.000
40.670 561.000 1.000
40.680 551.000 1.000
40.690 566.000 1.000
40.700 523.000 1.000
40.710 510.000 1.000
40.720 514.000 1.000
40.730 486.000 1.000
40.740 497.000 1.000
40.750 492.000 1.000
40.760 503.000 1.000
40.770 491.000 1.000
40.780 494.000 1.000
40.790 479.000 1.000
40.800 456.000 1.000
40.810 448.000 1.000
40.820 470.000 1.000
40.830 473.000 1.000
40.840 446.000 1.000
40.850 433.000 1.000
40.860 452.000 1.000
40.870 444.000 1.000
40.880 472.000 1.000
40.890 471.000 1.000
40.900 458.000 1.000
40.910 431.000 1.000
40.920 440.000 1.000
40.930 431.000 1.000
40.940 422.000 1.000
40.950 417.000 1.000
40.960 420.000 1.000
40.970 432.000 1.000
40.980 435.000 1.000
40.990 421.000 1.000
41.000 402.000 1.000
41.010 398.000 1.000
41.020 420.000 1.000
41.030 441.000 1.000
41.040 402.000 1.000
41.050 413.000 1.000
41.060 423.000 1.000
41.070 447.000 1.000
41.080 428.000 1.000
41.090 413.000 1.000
41.100 404.000 1.000
41.110 409.000 1.000
41.120 447.000 1.000
41.130 444.000 1.000
41.140 411.000 1.000
41.150 403.000 1.000
41.160 407.000 1.000
41.170 403.000 1.000
41.180 407.000 1.000
41.190 430.000 1.000
41.200 428.000 1.000
41.210 429.000 1.000
41.220 450.000 1.000
41.230 436.000 1.000
41.240 432.000 1.000
41.250 433.000 1.000
41.260 426.000 1.000
41.270 461.000 1.000
41.280 446.000 1.000
41.290 445.000 1.000
41.300 459.000 1.000
41.310 475.000 1.000
41.320 478.000 1.000
41.330 462.000 1.000
41.340 466.000 1.000
41.350 458.000 1.000
41.360 461.000 1.000
41.370 466.000 1.000
41.380 471.000 1.000
41.390 470.000 1.000
41.400 493.000 1.000
41.410 517.000 1.000
41.420 500.000 1.000
41.430 529.000 1.000
41.440 505.000 1.000
41.450 506.000 1.000
41.460 504.000 1.000
41.470 545.000 1.000
41.480 532.000 1.000
41.490 522.000 1.000
41.500 546.000 1.000
41.510 513.000 1.000
41.520 490.000 1.000
41.530 509.000 1.000
41.540 501.000 1.000
41.550 490.000 1.000
41.560 507.000 1.000
41.570 503.000 1.000
41.580 485.000 1.000
41.590 485.000 1.000
41.600 461.000 1.000
41.610 447.000 1.000
41.620 453.000 1.000
41.630 463.000 1.000
41.640 434.000 1.000
41.650 431.000 1.000
41.660 433.000 1.000
41.670 428.000 1.000
41.680 386.000 1.000
41.690 395.000 1.000
41.700 394.000 1.000
41.710 405.000 1.000
41.720 397.000 1.000
41.730 382.000 1.000
41.740 398.000 1.000
41.750 423.000 1.000
41.760 407.000 1.000
41.770 397.000 1.000
41.780 429.000 1.000
41.790 440.000 1.000
41.800 407.000 1.000
41.810 381.000 1.000
41.820 397.000 1.000
41.830 427.000 1.000
41.840 401.000 1.000
41.850 402.000 1.000
41.860 385.000 1.000
41.870 391.000 1.000
41.880 403.000 1.000
41.890 411.000 1.000
41.900 418.000 1.000
41.910 395.000 1.000
41.920 418.000 1.000
41.930 436.000 1.000
41.940 442.000 1.000
41.950 431.000 1.000
41.960 429.000 1.000
41.970 408.000 1.000
41.980 422.000 1.000
41.990 440.000 1.000
42.000 453.000 1.000
42.010 468.000 1.000
42.020 476.000 1.000
42.030 496.000 1.000
42.040 475.000 1.000
42.050 505.000 1.000
42.060 524.000 1.000
42.070 514.000 1.000
42.080 533.000 1.000
42.090 563.000 1.000
42.100 565.000 1.000
42.110 587.000 1.000
42.120 585.000 1.000
42.130 575.000 1.000
42.140 590.000 1.000
42.150 615.000 1.000
42.160 608.000 1.000
42.170 597.000 1.000
42.180 570.000 1.000
42.190 540.000 1.000
42.200 547.000 1.000
42.210 558.000 1.000
42.220 555.000 1.000
42.230 566.000 1.000
42.240 524.000 1.000
42.250 501.000 1.000
42.260 535.000 1.000
42.270 521.000 1.000
42.280 503.000 1.000
42.290 495.000 1.000
42.300 506.000 1.000
42.310 489.000 1.000
42.320 481.000 1.000
42.330 491.000 1.000
42.340 463.000 1.000
42.350 454.000 1.000
42.360 474.000 1.000
42.370 493.000 1.000
42.380 457.000 1.000
42.390 450.000 1.000
42.400 407.000 1.000
42.410 429.000 1.000
42.420 454.000 1.000
42.430 470.000 1.000
42.440 447.000 1.000
42.450 468.000 1.000
42.460 470.000 1.000
42.470 411.000 1.000
42.480 429.000 1.000
42.490 435.000 1.000
42.500 450.000 1.000
42.510 461.000 1.000
42.520 452.000 1.000
42.530 417.000 1.000
42.540 413.000 1.000
42.550 437.000 1.000
42.560 429.000 1.000
42.570 429.000 1.000
42.580 452.000 1.000
42.590 441.000 1.000
42.600 420.000 1.000
42.610 418.000 1.000
42.620 427.000 1.000
42.630 417.000 1.000
42.640 429.000 1.000
42.650 456.000 1.000
42.660 431.000 1.000
42.670 429.000 1.000
42.680 434.000 1.000
42.690 464.000 1.000
42.700 428.000 1.000
42.710 449.000 1.000
42.720 443.000 1.000
42.730 466.000 1.000
42.740 473.000 1.000
42.750 447.000 1.000
42.760 437.000 1.000
42.770 423.000 1.000
42.780 452.000 1.000
42.790 467.000 1.000
42.800 467.000 1.000
42.810 448.000 1.000
42.820 454.000 1.000
42.830 468.000 1.000
42.840 451.000 1.000
42.850 448.000 1.000
42.860 454.000 1.000
42.870 446.000 1.000
42.880 450.000 1.000
42.890 471.000 1.000
42.900 449.000 1.000
42.910 472.000 1.000
42.920 464.000 1.000
42.930 489.000 1.000
42.940 491.000 1.000
42.950 511.000 1.000
42.960 526.000 1.000
42.970 524.000 1.000
42.980 506.000 1.000
42.990 472.000 1.000
43.000 493.000 1.000
43.010 496.000 1.000
43.020 507.000 1.000
43.030 519.000 1.000
43.040 497.000 1.000
43.050 505.000 1.000
43.060 490.000 1.000
43.070 491.000 1.000
43.080 496.000 1.000
43.090 501.000 1.000
43.100 455.000 1.000
43.110 465.000 1.000
43.120 455.000 1.000
43.130 439.000 1.000
43.140 471.000 1.000
43.150 513.000 1.000
43.160 447.000 1.000
43.170 421.000 1.000
43.180 433.000 1.000
43.190 481.000 1.000
43.200 458.000 1.000
43.210 450.000 1.000
43.220 420.000 1.000
43.230 415.000 1.000
43.240 413.000 1.000
43.250 411.000 1.000
43.260 405.000 1.000
43.270 439.000 1.000
43.280 430.000 1.000
43.290 436.000 1.000
43.300 435.000 1.000
43.310 444.000 1.000
43.320 439.000 1.000
43.330 419.000 1.000
43.340 417.000 1.000
43.350 409.000 1.000
43.360 397.000 1.000
43.370 427.000 1.000
43.380 409.000 1.000
43.390 411.000 1.000
43.400 404.000 1.000
43.410 407.000 1.000
43.420 411.000 1.000
43.430 400.000 1.000
43.440 404.000 1.000
43.450 412.000 1.000
43.460 419.000 1.000
43.470 395.000 1.000
43.480 412.000 1.000
43.490 416.000 1.000
43.500 424.000 1.000
43.510 431.000 1.000
43.520 425.000 1.000
43.530 420.000 1.000
43.540 399.000 1.000
43.550 413.000 1.000
43.560 413.000 1.000
43.570 419.000 1.000
43.580 416.000 1.000
43.590 397.000 1.000
43.600 427.000 1.000
43.610 418.000 1.000
43.620 433.000 1.000
43.630 404.000 1.000
43.640 422.000 1.000
43.650 428.000 1.000
43.660 432.000 1.000
43.670 412.000 1.000
43.680 420.000 1.000
43.690 436.000 1.000
43.700 413.000 1.000
43.710 421.000 1.000
43.720 437.000 1.000
43.730 411.000 1.000
43.740 413.000 1.000
43.750 435.000 1.000
43.760 422.000 1.000
43.770 415.000 1.000
43.780 430.000 1.000
43.790 421.000 1.000
43.800 476.000 1.000
43.810 484.000 1.000
43.820 487.000 1.000
43.830 450.000 1.000
43.840 466.000 1.000
43.850 463.000 1.000
43.860 494.000 1.000
43.870 481.000 1.000
43.880 482.000 1.000
43.890 464.000 1.000
43.900 468.000 1.000
43.910 467.000 1.000
43.920 479.000 1.000
43.930 485.000 1.000
43.940 476.000 1.000
43.950 440.000 1.000
43.960 427.000 1.000
43.970 456.000 1.000
43.980 488.000 1.000
43.990 484.000 1.000
44.000 484.000 1.000
44.010 460.000 1.000
44.020 470.000 1.000
44.030 461.000 1.000
44.040 476.000 1.000
44.050 470.000 1.000
44.060 449.000 1.000
44.070 460.000 1.000
44.080 450.000 1.000
44.090 469.000 1.000
44.100 452.000 1.000
44.110 465.000 1.000
44.120 439.000 1.000
44.130 430.000 1.000
44.140 431.000 1.000
44.150 443.000 1.000
44.160 456.000 1.000
44.170 466.000 1.000
44.180 442.000 1.000
44.190 424.000 1.000
44.200 454.000 1.000
44.210 462.000 1.000
44.220 464.000 1.000
44.230 421.000 1.000
44.240 430.000 1.000
44.250 463.000 1.000
44.260 464.000 1.000
44.270 470.000 1.000
44.280 470.000 1.000
44.290 435.000 1.000
44.300 431.000 1.000
44.310 461.000 1.000
44.320 459.000 1.000
44.330 438.000 1.000
44.340 477.000 1.000
44.350 485.000 1.000
44.360 449.000 1.000
44.370 466.000 1.000
44.380 454.000 1.000
44.390 449.000 1.000
44.400 444.000 1.000
44.410 421.000 1.000
44.420 425.000 1.000
44.430 449.000 1.000
44.440 451.000 1.000
44.450 429.000 1.000
44.460 425.000 1.000
44.470 446.000 1.000
44.480 458.000 1.000
44.490 419.000 1.000
44.500 452.000 1.000
44.510 429.000 1.000
44.520 397.000 1.000
44.530 409.000 1.000
44.540 433.000 1.000
44.550 441.000 1.000
44.560 453.000 1.000
44.570 452.000 1.000
44.580 399.000 1.000
44.590 403.000 1.000
44.600 400.000 1.000
44.610 398.000 1.000
44.620 414.000 1.000
44.630 436.000 1.000
44.640 430.000 1.000
44.650 418.000 1.000
44.660 417.000 1.000
44.670 423.000 1.000
44.680 434.000 1.000
44.690 441.000 1.000
44.700 434.000 1.000
44.710 412.000 1.000
44.720 431.000 1.000
44.730 429.000 1.000
44.740 415.000 1.000
44.750 414.000 1.000
44.760 420.000 1.000
44.770 435.000 1.000
44.780 459.000 1.000
44.790 460.000 1.000
44.800 443.000 1.000
44.810 406.000 1.000
44.820 381.000 1.000
44.830 398.000 1.000
44.840 420.000 1.000
44.850 431.000 1.000
44.860 408.000 1.000
44.870 434.000 1.000
44.880 411.000 1.000
44.890 393.000 1.000
44.900 439.000 1.000
44.910 438.000 1.000
44.920 415.000 1.000
44.930 417.000 1.000
44.940 437.000 1.000
44.950 430.000 1.000
44.960 399.000 1.000
44.970 398.000 1.000
44.980 392.000 1.000
44.990 395.000 1.000
45.000 394.000 1.000
45.010 440.000 1.000
45.020 450.000 1.000
45.030 438.000 1.000
45.040 452.000 1.000
45.050 426.000 1.000
45.060 421.000 1.000
45.070 451.000 1.000
45.080 470.000 1.000
45.090 442.000 1.000
45.100 486.000 1.000
45.110 461.000 1.000
45.120 471.000 1.000
45.130 441.000 1.000
45.140 454.000 1.000
45.150 451.000 1.000
45.160 432.000 1.000
45.170 432.000 1.000
45.180 436.000 1.000
45.190 446.000 1.000
45.200 447.000 1.000
45.210 458.000 1.000
45.220 470.000 1.000
45.230 476.000 1.000
45.240 444.000 1.000
45.250 458.000 1.000
45.260 466.000 1.000
45.270 439.000 1.000
45.280 440.000 1.000
45.290 478.000 1.000
45.300 486.000 1.000
45.310 459.000 1.000
45.320 471.000 1.000
45.330 475.000 1.000
45.340 457.000 1.000
45.350 480.000 1.000
45.360 485.000 1.000
45.370 451.000 1.000
45.380 437.000 1.000
45.390 449.000 1.000
45.400 461.000 1.000
45.410 459.000 1.000
45.420 464.000 1.000
45.430 470.000 1.000
45.440 484.000 1.000
45.450 477.000 1.000
45.460 478.000 1.000
45.470 476.000 1.000
45.480 466.000 1.000
45.490 458.000 1.000
45.500 463.000 1.000
45.510 499.000 1.000
45.520 493.000 1.000
45.530 487.000 1.000
45.540 459.000 1.000
45.550 448.000 1.000
45.560 458.000 1.000
45.570 472.000 1.000
45.580 485.000 1.000
45.590 513.000 1.000
45.600 501.000 1.000
45.610 472.000 1.000
45.620 478.000 1.000
45.630 508.000 1.000
45.640 473.000 1.000
45.650 448.000 1.000
45.660 455.000 1.000
45.670 485.000 1.000
45.680 477.000 1.000
45.690 451.000 1.000
45.700 445.000 1.000
45.710 465.000 1.000
45.720 444.000 1.000
45.730 419.000 1.000
45.740 416.000 1.000
45.750 432.000 1.000
45.760 431.000 1.000
45.770 456.000 1.000
45.780 455.000 1.000
45.790 429.000 1.000
45.800 398.000 1.000
45.810 407.000 1.000
45.820 423.000 1.000
45.830 411.000 1.000
45.840 398.000 1.000
45.850 435.000 1.000
45.860 434.000 1.000
45.870 419.000 1.000
45.880 467.000 1.000
45.890 456.000 1.000
45.900 435.000 1.000
45.910 420.000 1.000
45.920 419.000 1.000
45.930 460.000 1.000
45.940 460.000 1.000
45.950 445.000 1.000
45.960 439.000 1.000
45.970 436.000 1.000
45.980 437.000 1.000
45.990 442.000 1.000
46.000 444.000 1.000
46.010 426.000 1.000
46.020 407.000 1.000
46.030 426.000 1.000
46.040 448.000 1.000
46.050 442.000 1.000
46.060 458.000 1.000
46.070 448.000 1.000
46.080 406.000 1.000
46.090 399.000 1.000
46.100 398.000 1.000
46.110 431.000 1.000
46.120 432.000 1.000
46.130 442.000 1.000
46.140 482.000 1.000
46.150 458.000 1.000
46.160 429.000 1.000
46.170 443.000 1.000
46.180 413.000 1.000
46.190 423.000 1.000
46.200 435.000 1.000
46.210 434.000 1.000
46.220 418.000 1.000
46.230 403.000 1.000
46.240 437.000 1.000
46.250 461.000 1.000
46.260 446.000 1.000
46.270 436.000 1.000
46.280 427.000 1.000
46.290 442.000 1.000
46.300 479.000 1.000
46.310 420.000 1.000
46.320 443.000 1.000
46.330 438.000 1.000
46.340 442.000 1.000
46.350 434.000 1.000
46.360 453.000 1.000
46.370 427.000 1.000
46.380 440.000 1.000
46.390 431.000 1.000
46.400 413.000 1.000
46.410 431.000 1.000
46.420 445.000 1.000
46.430 417.000 1.000
46.440 418.000 1.000
46.450 443.000 1.000
46.460 434.000 1.000
46.470 418.000 1.000
46.480 418.000 1.000
46.490 409.000 1.000
46.500 446.000 1.000
46.510 445.000 1.000
46.520 437.000 1.000
46.530 433.000 1.000
46.540 425.000 1.000
46.550 436.000 1.000
46.560 440.000 1.000
46.570 452.000 1.000
46.580 431.000 1.000
46.590 419.000 1.000
46.600 455.000 1.000
46.610 452.000 1.000
46.620 421.000 1.000
46.630 442.000 1.000
46.640 434.000 1.000
46.650 445.000 1.000
46.660 453.000 1.000
46.670 453.000 1.000
46.680 457.000 1.000
46.690 457.000 1.000
46.700 452.000 1.000
46.710 445.000 1.000
46.720 455.000 1.000
46.730 449.000 1.000
46.740 446.000 1.000
46.750 459.000 1.000
46.760 439.000 1.000
46.770 459.000 1.000
46.780 454.000 1.000
46.790 423.000 1.000
46.800 420.000 1.000
46.810 457.000 1.000
46.820 465.000 1.000
46.830 467.000 1.000
46.840 454.000 1.000
46.850 463.000 1.000
46.860 438.000 1.000
46.870 432.000 1.000
46.880 428.000 1.000
46.890 459.000 1.000
46.900 441.000 1.000
46.910 459.000 1.000
46.920 457.000 1.000
46.930 445.000 1.000
46.940 458.000 1.000
46.950 470.000 1.000
46.960 423.000 1.000
46.970 412.000 1.000
46.980 458.000 1.000
46.990 440.000 1.000
47.000 457.000 1.000
47.010 453.000 1.000
47.020 447.000 1.000
47.030 444.000 1.000
47.040 449.000 1.000
47.050 446.000 1.000
47.060 425.000 1.000
47.070 439.000 1.000
47.080 448.000 1.000
47.090 427.000 1.000
47.100 428.000 1.000
47.110 456.000 1.000
47.120 441.000 1.000
47.130 451.000 1.000
47.140 459.000 1.000
47.150 494.000 1.000
47.160 454.000 1.000
47.170 472.000 1.000
47.180 475.000 1.000
47.190 460.000 1.000
47.200 441.000 1.000
47.210 463.000 1.000
47.220 475.000 1.000
47.230 480.000 1.000
47.240 456.000 1.000
47.250 449.000 1.000
47.260 459.000 1.000
47.270 469.000 1.000
47.280 464.000 1.000
47.290 484.000 1.000
47.300 474.000 1.000
47.310 479.000 1.000
47.320 493.000 1.000
47.330 481.000 1.000
47.340 520.000 1.000
47.350 493.000 1.000
47.360 483.000 1.000
47.370 508.000 1.000
47.380 522.000 1.000
47.390 476.000 1.000
47.400 476.000 1.000
47.410 458.000 1.000
47.420 470.000 1.000
47.430 486.000 1.000
47.440 472.000 1.000
47.450 497.000 1.000
47.460 523.000 1.000
47.470 517.000 1.000
47.480 497.000 1.000
47.490 499.000 1.000
47.500 532.000 1.000
47.510 510.000 1.000
47.520 497.000 1.000
47.530 513.000 1.000
47.540 514.000 1.000
47.550 493.000 1.000
47.560 495.000 1.000
47.570 500.000 1.000
47.580 514.000 1.000
47.590 514.000 1.000
47.600 490.000 1.000
47.610 495.000 1.000
47.620 482.000 1.000
47.630 480.000 1.000
47.640 495.000 1.000
47.650 497.000 1.000
47.660 519.000 1.000
47.670 533.000 1.000
47.680 514.000 1.000
47.690 509.000 1.000
47.700 491.000 1.000
47.710 501.000 1.000
47.720 507.000 1.000
47.730 491.000 1.000
47.740 480.000 1.000
47.750 501.000 1.000
47.760 507.000 1.000
47.770 497.000 1.000
47.780 528.000 1.000
47.790 483.000 1.000
47.800 455.000 1.000
47.810 480.000 1.000
47.820 470.000 1.000
47.830 484.000 1.000
47.840 492.000 1.000
47.850 492.000 1.000
47.860 471.000 1.000
47.870 504.000 1.000
47.880 482.000 1.000
47.890 477.000 1.000
47.900 504.000 1.000
47.910 507.000 1.000
47.920 484.000 1.000
47.930 485.000 1.000
47.940 494.000 1.000
47.950 483.000 1.000
47.960 480.000 1.000
47.970 475.000 1.000
47.980 475.000 1.000
47.990 487.000 1.000
48.000 457.000 1.000
48.010 501.000 1.000
48.020 478.000 1.000
48.030 482.000 1.000
48.040 469.000 1.000
48.050 462.000 1.000
48.060 481.000 1.000
48.070 456.000 1.000
48.080 460.000 1.000
48.090 464.000 1.000
48.100 470.000 1.000
48.110 479.000 1.000
48.120 454.000 1.000
48.130 478.000 1.000
48.140 503.000 1.000
48.150 491.000 1.000
48.160 484.000 1.000
48.170 468.000 1.000
48.180 469.000 1.000
48.190 444.000 1.000
48.200 459.000 1.000
48.210 475.000 1.000
48.220 472.000 1.000
48.230 500.000 1.000
48.240 452.000 1.000
48.250 487.000 1.000
48.260 480.000 1.000
48.270 509.000 1.000
48.280 476.000 1.000
48.290 448.000 1.000
48.300 492.000 1.000
48.310 508.000 1.000
48.320 455.000 1.000
48.330 440.000 1.000
48.340 427.000 1.000
48.350 443.000 1.000
48.360 463.000 1.000
48.370 470.000 1.000
48.380 469.000 1.000
48.390 469.000 1.000
48.400 482.000 1.000
48.410 451.000 1.000
48.420 461.000 1.000
48.430 439.000 1.000
48.440 444.000 1.000
48.450 488.000 1.000
48.460 458.000 1.000
48.470 480.000 1.000
48.480 460.000 1.000
48.490 457.000 1.000
48.500 451.000 1.000
48.510 464.000 1.000
48.520 441.000 1.000
48.530 461.000 1.000
48.540 465.000 1.000
48.550 471.000 1.000
48.560 448.000 1.000
48.570 456.000 1.000
48.580 466.000 1.000
48.590 448.000 1.000
48.600 440.000 1.000
48.610 461.000 1.000
48.620 503.000 1.000
48.630 469.000 1.000
48.640 454.000 1.000
48.650 448.000 1.000
48.660 488.000 1.000
48.670 461.000 1.000
48.680 453.000 1.000
48.690 413.000 1.000
48.700 427.000 1.000
48.710 449.000 1.000
48.720 454.000 1.000
48.730 424.000 1.000
48.740 428.000 1.000
48.750 434.000 1.000
48.760 426.000 1.000
48.770 437.000 1.000
48.780 445.000 1.000
48.790 442.000 1.000
48.800 464.000 1.000
48.810 403.000 1.000
48.820 389.000 1.000
48.830 427.000 1.000
48.840 430.000 1.000
48.850 405.000 1.000
48.860 396.000 1.000
48.870 418.000 1.000
48.880 407.000 1.000
48.890 384.000 1.000
48.900 389.000 1.000
48.910 389.000 1.000
48.920 413.000 1.000
48.930 392.000 1.000
48.940 406.000 1.000
48.950 423.000 1.000
48.960 416.000 1.000
48.970 380.000 1.000
48.980 384.000 1.000
48.990 408.000 1.000
49.000 440.000 1.000
49.010 413.000 1.000
49.020 389.000 1.000
49.030 411.000 1.000
49.040 397.000 1.000
49.050 372.000 1.000
49.060 388.000 1.000
49.070 400.000 1.000
49.080 392.000 1.000
49.090 370.000 1.000
49.100 401.000 1.000
49.110 418.000 1.000
49.120 431.000 1.000
49.130 413.000 1.000
49.140 410.000 1.000
49.150 421.000 1.000
49.160 417.000 1.000
49.170 423.000 1.000
49.180 416.000 1.000
49.190 408.000 1.000
49.200 410.000 1.000
49.210 420.000 1.000
49.220 432.000 1.000
49.230 414.000 1.000
49.240 394.000 1.000
49.250 409.000 1.000
49.260 443.000 1.000
49.270 453.000 1.000
49.280 441.000 1.000
49.290 425.000 1.000
49.300 448.000 1.000
49.310 452.000 1.000
49.320 431.000 1.000
49.330 413.000 1.000
49.340 432.000 1.000
49.350 426.000 1.000
49.360 416.000 1.000
49.370 419.000 1.000
49.380 428.000 1.000
49.390 449.000 1.000
49.400 426.000 1.000
49.410 428.000 1.000
49.420 410.000 1.000
49.430 424.000 1.000
49.440 446.000 1.000
49.450 452.000 1.000
49.460 424.000 1.000
49.470 434.000 1.000
49.480 400.000 1.000
49.490 414.000 1.000
49.500 436.000 1.000
49.510 424.000 1.000
49.520 427.000 1.000
49.530 447.000 1.000
49.540 421.000 1.000
49.550 434.000 1.000
49.560 421.000 1.000
49.570 433.000 1.000
49.580 419.000 1.000
49.590 438.000 1.000
49.600 405.000 1.000
49.610 423.000 1.000
49.620 437.000 1.000
49.630 414.000 1.000
49.640 436.000 1.000
49.650 444.000 1.000
49.660 413.000 1.000
49.670 442.000 1.000
49.680 449.000 1.000
49.690 402.000 1.000
49.700 416.000 1.000
49.710 433.000 1.000
49.720 443.000 1.000
49.730 438.000 1.000
49.740 451.000 1.000
49.750 443.000 1.000
49.760 449.000 1.000
49.770 420.000 1.000
49.780 430.000 1.000
49.790 455.000 1.000
49.800 440.000 1.000
49.810 435.000 1.000
49.820 412.000 1.000
49.830 405.000 1.000
49.840 400.000 1.000
49.850 400.000 1.000
49.860 409.000 1.000
49.870 419.000 1.000
49.880 435.000 1.000
49.890 421.000 1.000
49.900 419.000 1.000
49.910 399.000 1.000
49.920 433.000 1.000
49.930 409.000 1.000
49.940 421.000 1.000
49.950 435.000 1.000
49.960 413.000 1.000
49.970 415.000 1.000
49.980 423.000 1.000
49.990 423.000 1.000
50.000 414.000 1.000
50.010 416.000 1.000
50.020 407.000 1.000
50.030 393.000 1.000
50.040 388.000 1.000
50.050 409.000 1.000
50.060 414.000 1.000
50.070 435.000 1.000
50.080 415.000 1.000
50.090 415.000 1.000
50.100 399.000 1.000
50.110 434.000 1.000
50.120 435.000 1.000
50.130 425.000 1.000
50.140 445.000 1.000
50.150 415.000 1.000
50.160 426.000 1.000
50.170 418.000 1.000
50.180 429.000 1.000
50.190 428.000 1.000
50.200 394.000 1.000
50.210 394.000 1.000
50.220 405.000 1.000
50.230 416.000 1.000
50.240 415.000 1.000
50.250 422.000 1.000
50.260 418.000 1.000
50.270 394.000 1.000
50.280 406.000 1.000
50.290 444.000 1.000
50.300 412.000 1.000
50.310 398.000 1.000
50.320 394.000 1.000
50.330 414.000 1.000
50.340 433.000 1.000
50.350 432.000 1.000
50.360 420.000 1.000
50.370 426.000 1.000
50.380 401.000 1.000
50.390 424.000 1.000
50.400 424.000 1.000
50.410 423.000 1.000
50.420 382.000 1.000
50.430 382.000 1.000
50.440 409.000 1.000
50.450 409.000 1.000
50.460 397.000 1.000
50.470 416.000 1.000
50.480 415.000 1.000
50.490 415.000 1.000
50.500 422.000 1.000
50.510 406.000 1.000
50.520 426.000 1.000
50.530 419.000 1.000
50.540 421.000 1.000
50.550 425.000 1.000
50.560 419.000 1.000
50.570 421.000 1.000
50.580 420.000 1.000
50.590 417.000 1.000
50.600 422.000 1.000
50.610 419.000 1.000
50.620 449.000 1.000
50.630 407.000 1.000
50.640 406.000 1.000
50.650 398.000 1.000
50.660 381.000 1.000
50.670 390.000 1.000
50.680 409.000 1.000
50.690 394.000 1.000
50.700 396.000 1.000
50.710 385.000 1.000
50.720 389.000 1.000
50.730 406.000 1.000
50.740 372.000 1.000
50.750 380.000 1.000
50.760 399.000 1.000
50.770 404.000 1.000
50.780 417.000 1.000
50.790 404.000 1.000
50.800 404.000 1.000
50.810 394.000 1.000
50.820 378.000 1.000
50.830 398.000 1.000
50.840 381.000 1.000
50.850 400.000 1.000
50.860 398.000 1.000
50.870 404.000 1.000
50.880 400.000 1.000
50.890 388.000 1.000
50.900 373.000 1.000
50.910 377.000 1.000
50.920 387.000 1.000
50.930 397.000 1.000
50.940 390.000 1.000
50.950 393.000 1.000
50.960 399.000 1.000
50.970 382.000 1.000
50.980 392.000 1.000
50.990 382.000 1.000
51.000 379.000 1.000
51.010 364.000 1.000
51.020 395.000 1.000
51.030 388.000 1.000
51.040 388.000 1.000
51.050 390.000 1.000
51.060 383.000 1.000
51.070 378.000 1.000
51.080 401.000 1.000
51.090 387.000 1.000
51.100 375.000 1.000
51.110 379.000 1.000
51.120 403.000 1.000
51.130 413.000 1.000
51.140 386.000 1.000
51.150 383.000 1.000
51.160 403.000 1.000
51.170 385.000 1.000
51.180 394.000 1.000
51.190 370.000 1.000
51.200 368.000 1.000
51.210 384.000 1.000
51.220 361.000 1.000
51.230 381.000 1.000
51.240 382.000 1.000
51.250 400.000 1.000
51.260 386.000 1.000
51.270 377.000 1.000
51.280 368.000 1.000
51.290 374.000 1.000
51.300 382.000 1.000
51.310 385.000 1.000
51.320 372.000 1.000
51.330 358.000 1.000
51.340 365.000 1.000
51.350 387.000 1.000
51.360 384.000 1.000
51.370 365.000 1.000
51.380 386.000 1.000
51.390 388.000 1.000
51.400 385.000 1.000
51.410 394.000 1.000
51.420 396.000 1.000
51.430 381.000 1.000
51.440 379.000 1.000
51.450 385.000 1.000
51.460 383.000 1.000
51.470 371.000 1.000
51.480 392.000 1.000
51.490 400.000 1.000
51.500 396.000 1.000
51.510 373.000 1.000
51.520 356.000 1.000
51.530 380.000 1.000
51.540 394.000 1.000
51.550 404.000 1.000
51.560 389.000 1.000
51.570 376.000 1.000
51.580 365.000 1.000
51.590 391.000 1.000
51.600 385.000 1.000
51.610 405.000 1.000
51.620 397.000 1.000
51.630 389.000 1.000
51.640 409.000 1.000
51.650 401.000 1.000
51.660 375.000 1.000
51.670 376.000 1.000
51.680 371.000 1.000
51.690 375.000 1.000
51.700 374.000 1.000
51.710 384.000 1.000
51.720 375.000 1.000
51.730 381.000 1.000
51.740 380.000 1.000
51.750 388.000 1.000
51.760 381.000 1.000
51.770 410.000 1.000
51.780 373.000 1.000
51.790 362.000 1.000
51.800 409.000 1.000
51.810 389.000 1.000
51.820 374.000 1.000
51.830 397.000 1.000
51.840 394.000 1.000
51.850 394.000 1.000
51.860 416.000 1.000
51.870 403.000 1.000
51.880 401.000 1.000
51.890 362.000 1.000
51.900 396.000 1.000
51.910 396.000 1.000
51.920 407.000 1.000
51.930 407.000 1.000
51.940 396.000 1.000
51.950 401.000 1.000
51.960 407.000 1.000
51.970 405.000 1.000
51.980 391.000 1.000
51.990 404.000 1.000
52.000 406.000 1.000
52.010 403.000 1.000
52.020 405.000 1.000
52.030 416.000 1.000
52.040 422.000 1.000
52.050 419.000 1.000
52.060 408.000 1.000
52.070 409.000 1.000
52.080 421.000 1.000
52.090 441.000 1.000
52.100 432.000 1.000
52.110 442.000 1.000
52.120 416.000 1.000
52.130 422.000 1.000
52.140 408.000 1.000
52.150 415.000 1.000
52.160 413.000 1.000
52.170 375.000 1.000
52.180 379.000 1.000
52.190 391.000 1.000
52.200 393.000 1.000
52.210 404.000 1.000
52.220 401.000 1.000
52.230 388.000 1.000
52.240 392.000 1.000
52.250 395.000 1.000
52.260 390.000 1.000
52.270 419.000 1.000
52.280 391.000 1.000
52.290 362.000 1.000
52.300 402.000 1.000
52.310 404.000 1.000
52.320 389.000 1.000
52.330 381.000 1.000
52.340 398.000 1.000
52.350 387.000 1.000
52.360 392.000 1.000
52.370 393.000 1.000
52.380 408.000 1.000
52.390 387.000 1.000
52.400 386.000 1.000
52.410 407.000 1.000
52.420 402.000 1.000
52.430 405.000 1.000
52.440 406.000 1.000
52.450 419.000 1.000
52.460 386.000 1.000
52.470 413.000 1.000
52.480 417.000 1.000
52.490 403.000 1.000
52.500 425.000 1.000
52.510 389.000 1.000
52.520 388.000 1.000
52.530 384.000 1.000
52.540 389.000 1.000
52.550 399.000 1.000
52.560 406.000 1.000
52.570 408.000 1.000
52.580 393.000 1.000
52.590 390.000 1.000
52.600 423.000 1.000
52.610 407.000 1.000
52.620 391.000 1.000
52.630 375.000 1.000
52.640 399.000 1.000
52.650 383.000 1.000
52.660 385.000 1.000
52.670 388.000 1.000
52.680 397.000 1.000
52.690 398.000 1.000
52.700 400.000 1.000
52.710 392.000 1.000
52.720 406.000 1.000
52.730 394.000 1.000
52.740 406.000 1.000
52.750 430.000 1.000
52.760 418.000 1.000
52.770 419.000 1.000
52.780 404.000 1.000
52.790 405.000 1.000
52.800 409.000 1.000
52.810 420.000 1.000
52.820 406.000 1.000
52.830 401.000 1.000
52.840 424.000 1.000
52.850 407.000 1.000
52.860 445.000 1.000
52.870 439.000 1.000
52.880 389.000 1.000
52.890 390.000 1.000
52.900 431.000 1.000
52.910 416.000 1.000
52.920 456.000 1.000
52.930 440.000 1.000
52.940 417.000 1.000
52.950 430.000 1.000
52.960 431.000 1.000
52.970 414.000 1.000
52.980 415.000 1.000
52.990 406.000 1.000
53.000 422.000 1.000
53.010 426.000 1.000
53.020 425.000 1.000
53.030 412.000 1.000
53.040 426.000 1.000
53.050 413.000 1.000
53.060 446.000 1.000
53.070 432.000 1.000
53.080 459.000 1.000
53.090 426.000 1.000
53.100 410.000 1.000
53.110 412.000 1.000
53.120 447.000 1.000
53.130 449.000 1.000
53.140 422.000 1.000
53.150 406.000 1.000
53.160 433.000 1.000
53.170 419.000 1.000
53.180 422.000 1.000
53.190 423.000 1.000
53.200 403.000 1.000
53.210 435.000 1.000
53.220 422.000 1.000
53.230 384.000 1.000
53.240 388.000 1.000
53.250 394.000 1.000
53.260 421.000 1.000
53.270 406.000 1.000
53.280 399.000 1.000
53.290 424.000 1.000
53.300 396.000 1.000
53.310 422.000 1.000
53.320 433.000 1.000
53.330 407.000 1.000
53.340 406.000 1.000
53.350 401.000 1.000
53.360 384.000 1.000
53.370 377.000 1.000
53.380 379.000 1.000
53.390 404.000 1.000
53.400 414.000 1.000
53.410 414.000 1.000
53.420 402.000 1.000
53.430 400.000 1.000
53.440 407.000 1.000
53.450 428.000 1.000
53.460 448.000 1.000
53.470 388.000 1.000
53.480 398.000 1.000
53.490 403.000 1.000
53.500 373.000 1.000
53.510 397.000 1.000
53.520 392.000 1.000
53.530 401.000 1.000
53.540 396.000 1.000
53.550 398.000 1.000
53.560 422.000 1.000
53.570 419.000 1.000
53.580 399.000 1.000
53.590 387.000 1.000
53.600 380.000 1.000
53.610 406.000 1.000
53.620 429.000 1.000
53.630 404.000 1.000
53.640 405.000 1.000
53.650 411.000 1.000
53.660 405.000 1.000
53.670 407.000 1.000
53.680 410.000 1.000
53.690 434.000 1.000
53.700 411.000 1.000
53.710 368.000 1.000
53.720 380.000 1.000
53.730 400.000 1.000
53.740 411.000 1.000
53.750 391.000 1.000
53.760 395.000 1.000
53.770 407.000 1.000
53.780 421.000 1.000
53.790 413.000 1.000
53.800 414.000 1.000
53.810 407.000 1.000
53.820 401.000 1.000
53.830 403.000 1.000
53.840 375.000 1.000
53.850 399.000 1.000
53.860 401.000 1.000
53.870 372.000 1.000
53.880 382.000 1.000
53.890 381.000 1.000
53.900 375.000 1.000
53.910 391.000 1.000
53.920 404.000 1.000
53.930 428.000 1.000
53.940 407.000 1.000
53.950 428.000 1.000
53.960 395.000 1.000
53.970 397.000 1.000
53.980 405.000 1.000
53.990 386.000 1.000
54.000 393.000 1.000
54.010 419.000 1.000
54.020 432.000 1.000
54.030 380.000 1.000
54.040 358.000 1.000
54.050 398.000 1.000
54.060 398.000 1.000
54.070 394.000 1.000
54.080 396.000 1.000
54.090 388.000 1.000
54.100 380.000 1.000
54.110 391.000 1.000
54.120 427.000 1.000
54.130 416.000 1.000
54.140 403.000 1.000
54.150 400.000 1.000
54.160 397.000 1.000
54.170 408.000 1.000
54.180 400.000 1.000
54.190 407.000 1.000
54.200 392.000 1.000
54.210 390.000 1.000
54.220 417.000 1.000
54.230 393.000 1.000
54.240 382.000 1.000
54.250 399.000 1.000
54.260 402.000 1.000
54.270 404.000 1.000
54.280 409.000 1.000
54.290 371.000 1.000
54.300 384.000 1.000
54.310 404.000 1.000
54.320 409.000 1.000
54.330 374.000 1.000
54.340 383.000 1.000
54.350 388.000 1.000
54.360 363.000 1.000
54.370 393.000 1.000
54.380 376.000 1.000
54.390 407.000 1.000
54.400 392.000 1.000
54.410 369.000 1.000
54.420 392.000 1.000
54.430 409.000 1.000
54.440 393.000 1.000
54.450 398.000 1.000
54.460 381.000 1.000
54.470 359.000 1.000
54.480 378.000 1.000
54.490 379.000 1.000
54.500 378.000 1.000
54.510 383.000 1.000
54.520 397.000 1.000
54.530 369.000 1.000
54.540 362.000 1.000
54.550 370.000 1.000
54.560 373.000 1.000
54.570 349.000 1.000
54.580 348.000 1.000
54.590 375.000 1.000
54.600 383.000 1.000
54.610 388.000 1.000
54.620 401.000 1.000
54.630 388.000 1.000
54.640 406.000 1.000
54.650 389.000 1.000
54.660 378.000 1.000
54.670 378.000 1.000
54.680 387.000 1.000
54.690 380.000 1.000
54.700 388.000 1.000
54.710 392.000 1.000
54.720 373.000 1.000
54.730 355.000 1.000
54.740 362.000 1.000
54.750 362.000 1.000
54.760 366.000 1.000
54.770 385.000 1.000
54.780 390.000 1.000
54.790 376.000 1.000
54.800 379.000 1.000
54.810 373.000 1.000
54.820 361.000 1.000
54.830 371.000 1.000
54.840 384.000 1.000
54.850 377.000 1.000
54.860 338.000 1.000
54.870 351.000 1.000
54.880 368.000 1.000
54.890 373.000 1.000
54.900 365.000 1.000
54.910 362.000 1.000
54.920 353.000 1.000
54.930 373.000 1.000
54.940 376.000 1.000
54.950 340.000 1.000
54.960 353.000 1.000
54.970 393.000 1.000
54.980 400.000 1.000
54.990 379.000 1.000
55.000 357.000 1.000
*RAS_INT_END
*RAS_DATA_END
